Wavelength;Intensity_Meas;Intensity_Ref;Difference_dB
1200.0000;-61.5800;-57.3300;-4.2500
1200.1990;-61.4700;-57.3100;-4.1600
1200.3980;-61.3900;-57.2900;-4.1000
1200.5970;-61.4000;-57.2600;-4.1400
1200.7970;-61.3200;-57.2100;-4.1100
1200.9960;-61.2600;-57.2000;-4.0600
1201.1950;-61.2300;-57.1800;-4.0500
1201.3940;-61.1900;-57.1100;-4.0800
1201.5930;-61.1000;-57.0700;-4.0300
1201.7920;-61.0400;-57.0200;-4.0200
1201.9910;-61.0300;-56.9800;-4.0500
1202.1900;-60.9500;-56.9500;-4.0000
1202.3890;-60.9500;-56.8700;-4.0800
1202.5890;-60.9100;-56.8000;-4.1100
1202.7880;-60.8300;-56.7800;-4.0500
1202.9870;-60.8100;-56.7300;-4.0800
1203.1860;-60.7800;-56.6800;-4.1000
1203.3850;-60.7700;-56.6000;-4.1700
1203.5840;-60.7200;-56.5700;-4.1500
1203.7830;-60.6800;-56.5400;-4.1400
1203.9820;-60.7000;-56.4900;-4.2100
1204.1810;-60.6800;-56.4500;-4.2300
1204.3810;-60.6900;-56.3900;-4.3000
1204.5800;-60.7200;-56.3900;-4.3300
1204.7790;-60.7200;-56.3700;-4.3500
1204.9780;-60.7600;-56.3100;-4.4500
1205.1770;-60.7800;-56.2800;-4.5000
1205.3760;-60.7600;-56.2700;-4.4900
1205.5750;-60.7900;-56.2500;-4.5400
1205.7740;-60.8400;-56.2300;-4.6100
1205.9740;-60.8800;-56.2100;-4.6700
1206.1730;-60.8400;-56.2000;-4.6400
1206.3720;-60.8100;-56.1800;-4.6300
1206.5710;-60.8600;-56.1600;-4.7000
1206.7700;-60.8100;-56.1400;-4.6700
1206.9690;-60.7500;-56.1000;-4.6500
1207.1680;-60.6900;-56.1000;-4.5900
1207.3670;-60.6600;-56.0800;-4.5800
1207.5660;-60.6400;-56.0200;-4.6200
1207.7660;-60.5500;-56.0100;-4.5400
1207.9650;-60.4600;-55.9800;-4.4800
1208.1640;-60.3900;-55.9400;-4.4500
1208.3630;-60.3400;-55.8900;-4.4500
1208.5620;-60.2600;-55.8600;-4.4000
1208.7610;-60.1700;-55.8300;-4.3400
1208.9600;-60.1000;-55.7800;-4.3200
1209.1590;-60.0500;-55.7300;-4.3200
1209.3580;-59.9700;-55.6600;-4.3100
1209.5580;-59.9200;-55.6200;-4.3000
1209.7570;-59.8300;-55.6000;-4.2300
1209.9560;-59.7800;-55.5300;-4.2500
1210.1550;-59.7400;-55.4600;-4.2800
1210.3540;-59.6500;-55.4200;-4.2300
1210.5530;-59.6000;-55.3900;-4.2100
1210.7520;-59.5500;-55.3400;-4.2100
1210.9510;-59.5300;-55.2800;-4.2500
1211.1500;-59.4800;-55.2400;-4.2400
1211.3500;-59.4000;-55.2000;-4.2000
1211.5490;-59.4000;-55.1800;-4.2200
1211.7480;-59.3700;-55.1500;-4.2200
1211.9470;-59.3100;-55.0800;-4.2300
1212.1460;-59.2700;-55.0700;-4.2000
1212.3450;-59.2800;-55.0500;-4.2300
1212.5440;-59.3100;-55.0100;-4.3000
1212.7430;-59.2600;-54.9800;-4.2800
1212.9430;-59.2200;-54.9500;-4.2700
1213.1420;-59.2200;-54.9200;-4.3000
1213.3410;-59.2400;-54.8900;-4.3500
1213.5400;-59.2500;-54.8700;-4.3800
1213.7390;-59.2200;-54.8500;-4.3700
1213.9380;-59.2200;-54.8000;-4.4200
1214.1370;-59.2400;-54.7900;-4.4500
1214.3360;-59.2400;-54.7300;-4.5100
1214.5350;-59.2100;-54.7000;-4.5100
1214.7350;-59.1800;-54.6800;-4.5000
1214.9340;-59.2100;-54.6300;-4.5800
1215.1330;-59.2100;-54.5800;-4.6300
1215.3320;-59.1300;-54.5300;-4.6000
1215.5310;-59.1200;-54.4900;-4.6300
1215.7300;-59.1000;-54.4500;-4.6500
1215.9290;-59.1000;-54.3900;-4.7100
1216.1280;-59.0400;-54.3300;-4.7100
1216.3270;-58.9800;-54.2600;-4.7200
1216.5270;-58.9700;-54.2300;-4.7400
1216.7260;-58.9500;-54.1800;-4.7700
1216.9250;-58.9100;-54.1000;-4.8100
1217.1240;-58.8300;-54.0500;-4.7800
1217.3230;-58.8000;-53.9900;-4.8100
1217.5220;-58.8300;-53.9400;-4.8900
1217.7210;-58.7600;-53.9000;-4.8600
1217.9200;-58.7100;-53.8400;-4.8700
1218.1200;-58.6700;-53.8000;-4.8700
1218.3190;-58.6700;-53.7500;-4.9200
1218.5180;-58.6500;-53.7100;-4.9400
1218.7170;-58.5800;-53.6600;-4.9200
1218.9160;-58.5700;-53.6300;-4.9400
1219.1150;-58.5600;-53.6100;-4.9500
1219.3140;-58.5300;-53.5500;-4.9800
1219.5130;-58.5000;-53.5300;-4.9700
1219.7120;-58.4400;-53.5100;-4.9300
1219.9120;-58.4400;-53.4600;-4.9800
1220.1110;-58.4000;-53.4300;-4.9700
1220.3100;-58.3300;-53.3900;-4.9400
1220.5090;-58.2800;-53.3500;-4.9300
1220.7080;-58.2700;-53.3300;-4.9400
1220.9070;-58.2400;-53.2800;-4.9600
1221.1060;-58.1500;-53.2200;-4.9300
1221.3050;-58.0700;-53.1900;-4.8800
1221.5040;-58.0400;-53.1400;-4.9000
1221.7040;-57.9700;-53.0800;-4.8900
1221.9030;-57.8900;-53.0300;-4.8600
1222.1020;-57.8000;-52.9700;-4.8300
1222.3010;-57.7500;-52.9100;-4.8400
1222.5000;-57.7100;-52.8400;-4.8700
1222.6990;-57.6200;-52.7900;-4.8300
1222.8980;-57.5500;-52.7100;-4.8400
1223.0970;-57.4900;-52.6500;-4.8400
1223.2970;-57.4400;-52.5800;-4.8600
1223.4960;-57.3600;-52.5000;-4.8600
1223.6950;-57.2800;-52.4500;-4.8300
1223.8940;-57.2600;-52.3800;-4.8800
1224.0930;-57.2100;-52.3100;-4.9000
1224.2920;-57.1400;-52.2400;-4.9000
1224.4910;-57.0800;-52.1800;-4.9000
1224.6900;-57.0300;-52.1300;-4.9000
1224.8890;-56.9700;-52.0500;-4.9200
1225.0890;-56.8800;-52.0100;-4.8700
1225.2880;-56.7700;-51.9300;-4.8400
1225.4870;-56.7000;-51.8700;-4.8300
1225.6860;-56.6100;-51.8400;-4.7700
1225.8850;-56.4800;-51.7800;-4.7000
1226.0840;-56.3300;-51.7300;-4.6000
1226.2830;-56.2200;-51.6800;-4.5400
1226.4820;-56.1000;-51.6200;-4.4800
1226.6810;-55.9300;-51.5900;-4.3400
1226.8810;-55.7500;-51.5400;-4.2100
1227.0800;-55.6400;-51.4800;-4.1600
1227.2790;-55.5400;-51.4400;-4.1000
1227.4780;-55.3900;-51.3800;-4.0100
1227.6770;-55.2700;-51.3400;-3.9300
1227.8760;-55.2100;-51.2700;-3.9400
1228.0750;-55.1200;-51.2200;-3.9000
1228.2740;-55.0400;-51.1500;-3.8900
1228.4740;-54.9600;-51.0800;-3.8800
1228.6730;-54.9200;-51.0300;-3.8900
1228.8720;-54.9100;-50.9500;-3.9600
1229.0710;-54.8500;-50.8900;-3.9600
1229.2700;-54.8400;-50.8100;-4.0300
1229.4690;-54.8200;-50.7200;-4.1000
1229.6680;-54.8200;-50.6700;-4.1500
1229.8670;-54.8300;-50.5700;-4.2600
1230.0660;-54.8400;-50.4900;-4.3500
1230.2660;-54.8800;-50.4100;-4.4700
1230.4650;-54.9100;-50.3300;-4.5800
1230.6640;-54.9300;-50.2600;-4.6700
1230.8630;-54.9900;-50.1800;-4.8100
1231.0620;-55.0500;-50.1100;-4.9400
1231.2610;-55.1000;-50.0500;-5.0500
1231.4600;-55.1300;-49.9800;-5.1500
1231.6590;-55.1500;-49.9300;-5.2200
1231.8580;-55.1700;-49.8500;-5.3200
1232.0580;-55.1400;-49.8100;-5.3300
1232.2570;-55.0700;-49.7400;-5.3300
1232.4560;-54.9800;-49.6800;-5.3000
1232.6550;-54.8500;-49.6400;-5.2100
1232.8540;-54.7000;-49.5700;-5.1300
1233.0530;-54.5000;-49.5300;-4.9700
1233.2520;-54.3000;-49.4600;-4.8400
1233.4510;-54.0800;-49.4100;-4.6700
1233.6500;-53.8700;-49.3700;-4.5000
1233.8500;-53.6400;-49.3000;-4.3400
1234.0490;-53.4300;-49.2500;-4.1800
1234.2480;-53.2500;-49.1800;-4.0700
1234.4470;-53.0600;-49.1200;-3.9400
1234.6460;-52.8900;-49.0600;-3.8300
1234.8450;-52.7800;-48.9900;-3.7900
1235.0440;-52.6600;-48.9300;-3.7300
1235.2430;-52.5700;-48.8400;-3.7300
1235.4430;-52.4700;-48.7600;-3.7100
1235.6420;-52.4200;-48.6900;-3.7300
1235.8410;-52.3900;-48.6000;-3.7900
1236.0400;-52.3500;-48.5300;-3.8200
1236.2390;-52.3300;-48.4200;-3.9100
1236.4380;-52.3100;-48.3300;-3.9800
1236.6370;-52.3200;-48.2500;-4.0700
1236.8360;-52.3100;-48.1500;-4.1600
1237.0350;-52.3200;-48.0800;-4.2400
1237.2350;-52.3400;-47.9900;-4.3500
1237.4340;-52.3300;-47.9000;-4.4300
1237.6330;-52.3300;-47.8100;-4.5200
1237.8320;-52.3300;-47.7400;-4.5900
1238.0310;-52.3200;-47.6600;-4.6600
1238.2300;-52.3100;-47.5700;-4.7400
1238.4290;-52.2400;-47.5000;-4.7400
1238.6280;-52.2000;-47.4200;-4.7800
1238.8270;-52.1300;-47.3400;-4.7900
1239.0270;-52.0400;-47.2700;-4.7700
1239.2260;-51.9400;-47.1800;-4.7600
1239.4250;-51.8200;-47.1100;-4.7100
1239.6240;-51.7100;-47.0300;-4.6800
1239.8230;-51.5700;-46.9400;-4.6300
1240.0220;-51.4400;-46.8700;-4.5700
1240.2210;-51.3300;-46.7700;-4.5600
1240.4200;-51.1900;-46.6900;-4.5000
1240.6200;-51.0700;-46.5900;-4.4800
1240.8190;-50.9600;-46.4900;-4.4700
1241.0180;-50.8600;-46.3800;-4.4800
1241.2170;-50.7900;-46.2700;-4.5200
1241.4160;-50.6900;-46.1700;-4.5200
1241.6150;-50.6200;-46.0300;-4.5900
1241.8140;-50.5700;-45.9100;-4.6600
1242.0130;-50.5200;-45.8000;-4.7200
1242.2120;-50.4800;-45.6900;-4.7900
1242.4120;-50.4400;-45.5600;-4.8800
1242.6110;-50.4000;-45.4200;-4.9800
1242.8100;-50.3500;-45.3100;-5.0400
1243.0090;-50.2900;-45.1700;-5.1200
1243.2080;-50.2700;-45.0500;-5.2200
1243.4070;-50.2100;-44.9200;-5.2900
1243.6060;-50.1300;-44.7900;-5.3400
1243.8050;-50.0700;-44.6800;-5.3900
1244.0040;-49.9900;-44.5400;-5.4500
1244.2040;-49.9400;-44.4100;-5.5300
1244.4030;-49.8400;-44.2900;-5.5500
1244.6020;-49.7800;-44.1600;-5.6200
1244.8010;-49.7200;-44.0500;-5.6700
1245.0000;-49.6500;-43.9100;-5.7400
1245.1990;-49.6100;-43.7900;-5.8200
1245.3980;-49.5700;-43.6700;-5.9000
1245.5970;-49.5300;-43.5300;-6.0000
1245.7970;-49.4900;-43.4100;-6.0800
1245.9960;-49.4400;-43.2600;-6.1800
1246.1950;-49.4400;-43.1400;-6.3000
1246.3940;-49.3800;-43.0000;-6.3800
1246.5930;-49.3100;-42.8500;-6.4600
1246.7920;-49.2200;-42.7300;-6.4900
1246.9910;-49.0900;-42.5600;-6.5300
1247.1900;-48.9400;-42.4200;-6.5200
1247.3890;-48.7200;-42.2700;-6.4500
1247.5890;-48.4600;-42.1100;-6.3500
1247.7880;-48.1500;-41.9700;-6.1800
1247.9870;-47.7900;-41.8000;-5.9900
1248.1860;-47.4200;-41.6500;-5.7700
1248.3850;-47.0000;-41.5000;-5.5000
1248.5840;-46.5700;-41.3300;-5.2400
1248.7830;-46.1200;-41.1800;-4.9400
1248.9820;-45.6100;-41.0200;-4.5900
1249.1810;-45.2500;-40.8700;-4.3800
1249.3810;-44.8200;-40.7200;-4.1000
1249.5800;-44.4100;-40.5600;-3.8500
1249.7790;-44.0200;-40.4200;-3.6000
1249.9780;-43.6400;-40.2500;-3.3900
1250.1770;-43.2800;-40.1100;-3.1700
1250.3760;-42.9500;-39.9700;-2.9800
1250.5750;-42.6500;-39.8100;-2.8400
1250.7740;-42.3500;-39.6700;-2.6800
1250.9740;-42.1000;-39.5200;-2.5800
1251.1730;-41.8400;-39.3800;-2.4600
1251.3720;-41.6100;-39.2300;-2.3800
1251.5710;-41.4000;-39.0900;-2.3100
1251.7700;-41.1900;-38.9500;-2.2400
1251.9690;-41.0100;-38.7900;-2.2200
1252.1680;-40.8100;-38.6400;-2.1700
1252.3670;-40.6300;-38.4700;-2.1600
1252.5660;-40.4800;-38.3200;-2.1600
1252.7660;-40.3000;-38.1700;-2.1300
1252.9650;-40.1500;-38.0100;-2.1400
1253.1640;-39.9800;-37.8500;-2.1300
1253.3630;-39.8100;-37.6800;-2.1300
1253.5620;-39.6600;-37.5200;-2.1400
1253.7610;-39.4800;-37.3500;-2.1300
1253.9600;-39.3300;-37.1900;-2.1400
1254.1590;-39.1400;-37.0300;-2.1100
1254.3580;-38.9600;-36.8500;-2.1100
1254.5580;-38.8000;-36.7000;-2.1000
1254.7570;-38.6200;-36.5400;-2.0800
1254.9560;-38.4400;-36.3700;-2.0700
1255.1550;-38.2600;-36.2300;-2.0300
1255.3540;-38.0800;-36.0600;-2.0200
1255.5530;-37.9200;-35.9200;-2.0000
1255.7520;-37.7300;-35.7400;-1.9900
1255.9510;-37.5700;-35.6300;-1.9400
1256.1500;-37.3900;-35.4900;-1.9000
1256.3500;-37.2200;-35.3400;-1.8800
1256.5490;-37.0500;-35.2200;-1.8300
1256.7480;-36.8800;-35.0700;-1.8100
1256.9470;-36.7200;-34.9400;-1.7800
1257.1460;-36.5400;-34.8000;-1.7400
1257.3450;-36.3700;-34.6600;-1.7100
1257.5440;-36.2100;-34.5400;-1.6700
1257.7430;-36.0300;-34.3900;-1.6400
1257.9430;-35.8300;-34.2500;-1.5800
1258.1420;-35.6900;-34.1200;-1.5700
1258.3410;-35.5300;-33.9700;-1.5600
1258.5400;-35.3500;-33.8400;-1.5100
1258.7390;-35.1700;-33.6800;-1.4900
1258.9380;-34.9800;-33.5400;-1.4400
1259.1370;-34.8000;-33.3900;-1.4100
1259.3360;-34.6300;-33.2400;-1.3900
1259.5350;-34.4500;-33.1000;-1.3500
1259.7350;-34.2800;-32.9400;-1.3400
1259.9340;-34.0800;-32.8000;-1.2800
1260.1330;-33.9100;-32.6500;-1.2600
1260.3320;-33.7500;-32.4900;-1.2600
1260.5310;-33.5700;-32.3600;-1.2100
1260.7300;-33.4100;-32.2000;-1.2100
1260.9290;-33.2400;-32.0700;-1.1700
1261.1280;-33.0700;-31.9200;-1.1500
1261.3270;-32.9200;-31.7700;-1.1500
1261.5270;-32.7700;-31.6500;-1.1200
1261.7260;-32.6200;-31.5100;-1.1100
1261.9250;-32.4600;-31.3800;-1.0800
1262.1240;-32.3200;-31.2400;-1.0800
1262.3230;-32.1800;-31.1100;-1.0700
1262.5220;-32.0400;-31.0000;-1.0400
1262.7210;-31.9000;-30.8600;-1.0400
1262.9200;-31.7500;-30.7400;-1.0100
1263.1200;-31.6100;-30.6000;-1.0100
1263.3190;-31.4700;-30.4700;-1.0000
1263.5180;-31.3400;-30.3600;-0.9800
1263.7170;-31.2000;-30.2100;-0.9900
1263.9160;-31.0500;-30.0900;-0.9600
1264.1150;-30.9100;-29.9500;-0.9600
1264.3140;-30.7700;-29.8100;-0.9600
1264.5130;-30.6300;-29.6900;-0.9400
1264.7120;-30.5000;-29.5500;-0.9500
1264.9120;-30.3500;-29.4200;-0.9300
1265.1110;-30.2000;-29.2700;-0.9300
1265.3100;-30.0700;-29.1400;-0.9300
1265.5090;-29.9400;-29.0100;-0.9300
1265.7080;-29.8200;-28.8700;-0.9500
1265.9070;-29.6800;-28.7500;-0.9300
1266.1060;-29.5500;-28.6100;-0.9400
1266.3050;-29.4300;-28.4800;-0.9500
1266.5040;-29.3100;-28.3700;-0.9400
1266.7040;-29.2100;-28.2400;-0.9700
1266.9030;-29.0900;-28.1200;-0.9700
1267.1020;-28.9900;-27.9900;-1.0000
1267.3010;-28.9000;-27.8700;-1.0300
1267.5000;-28.8100;-27.7700;-1.0400
1267.6990;-28.7400;-27.6500;-1.0900
1267.8980;-28.6500;-27.5500;-1.1000
1268.0970;-28.5900;-27.4300;-1.1600
1268.2970;-28.5300;-27.3200;-1.2100
1268.4960;-28.4800;-27.2200;-1.2600
1268.6950;-28.4600;-27.1000;-1.3600
1268.8940;-28.4200;-27.0000;-1.4200
1269.0930;-28.4000;-26.8800;-1.5200
1269.2920;-28.4000;-26.7700;-1.6300
1269.4910;-28.4200;-26.6600;-1.7600
1269.6900;-28.4700;-26.5400;-1.9300
1269.8890;-28.5100;-26.4400;-2.0700
1270.0890;-28.6000;-26.3100;-2.2900
1270.2880;-28.7100;-26.2000;-2.5100
1270.4870;-28.8500;-26.0700;-2.7800
1270.6860;-29.0400;-25.9700;-3.0700
1270.8850;-29.2400;-25.8500;-3.3900
1271.0840;-29.5000;-25.7300;-3.7700
1271.2830;-29.8000;-25.6300;-4.1700
1271.4820;-30.1600;-25.5000;-4.6600
1271.6810;-30.5800;-25.3900;-5.1900
1271.8810;-31.0600;-25.2800;-5.7800
1272.0800;-31.6300;-25.1700;-6.4600
1272.2790;-32.2600;-25.0600;-7.2000
1272.4780;-33.0000;-24.9500;-8.0500
1272.6770;-33.8600;-24.8500;-9.0100
1272.8760;-34.8200;-24.7400;-10.0800
1273.0750;-35.9300;-24.6500;-11.2800
1273.2740;-37.1200;-24.5600;-12.5600
1273.4740;-38.6600;-24.4500;-14.2100
1273.6730;-39.5600;-24.3700;-15.1900
1273.8720;-40.2700;-24.2700;-16.0000
1274.0710;-40.2100;-24.1800;-16.0300
1274.2700;-39.3700;-24.0900;-15.2800
1274.4690;-38.1000;-23.9900;-14.1100
1274.6680;-36.6800;-23.9100;-12.7700
1274.8670;-35.1100;-23.8100;-11.3000
1275.0660;-34.0700;-23.7200;-10.3500
1275.2660;-32.9600;-23.6400;-9.3200
1275.4650;-31.9800;-23.5400;-8.4400
1275.6640;-31.0900;-23.4600;-7.6300
1275.8630;-30.3200;-23.3600;-6.9600
1276.0620;-29.6100;-23.2700;-6.3400
1276.2610;-29.0000;-23.1800;-5.8200
1276.4600;-28.4500;-23.0900;-5.3600
1276.6590;-27.9600;-23.0000;-4.9600
1276.8580;-27.5500;-22.9000;-4.6500
1277.0580;-27.1800;-22.8200;-4.3600
1277.2570;-26.8700;-22.7300;-4.1400
1277.4560;-26.6000;-22.6400;-3.9600
1277.6550;-26.3800;-22.5700;-3.8100
1277.8540;-26.2100;-22.4700;-3.7400
1278.0530;-26.0300;-22.4000;-3.6300
1278.2520;-25.9700;-22.3100;-3.6600
1278.4510;-25.8800;-22.2300;-3.6500
1278.6500;-25.8400;-22.1600;-3.6800
1278.8500;-25.8200;-22.0700;-3.7500
1279.0490;-25.8300;-22.0000;-3.8300
1279.2480;-25.8700;-21.9200;-3.9500
1279.4470;-25.9200;-21.8400;-4.0800
1279.6460;-26.0000;-21.7700;-4.2300
1279.8450;-26.0900;-21.6800;-4.4100
1280.0440;-26.1900;-21.6200;-4.5700
1280.2430;-26.3200;-21.5400;-4.7800
1280.4430;-26.4400;-21.4600;-4.9800
1280.6420;-26.6000;-21.3900;-5.2100
1280.8410;-26.7300;-21.3100;-5.4200
1281.0400;-26.8800;-21.2400;-5.6400
1281.2390;-27.0500;-21.1600;-5.8900
1281.4380;-27.2000;-21.0800;-6.1200
1281.6370;-27.3700;-21.0100;-6.3600
1281.8360;-27.5300;-20.9300;-6.6000
1282.0350;-27.7100;-20.8700;-6.8400
1282.2350;-27.8900;-20.7800;-7.1100
1282.4340;-28.0800;-20.7100;-7.3700
1282.6330;-28.3400;-20.6500;-7.6900
1282.8320;-28.5100;-20.5800;-7.9300
1283.0310;-28.7500;-20.5200;-8.2300
1283.2300;-28.9800;-20.4500;-8.5300
1283.4290;-29.2500;-20.3900;-8.8600
1283.6280;-29.5500;-20.3200;-9.2300
1283.8270;-29.8500;-20.2600;-9.5900
1284.0270;-30.2000;-20.2100;-9.9900
1284.2260;-30.5500;-20.1400;-10.4100
1284.4250;-30.9200;-20.0900;-10.8300
1284.6240;-31.3100;-20.0300;-11.2800
1284.8230;-31.6900;-19.9700;-11.7200
1285.0220;-32.0600;-19.9300;-12.1300
1285.2210;-32.3800;-19.8600;-12.5200
1285.4200;-32.6500;-19.8100;-12.8400
1285.6200;-32.8200;-19.7500;-13.0700
1285.8190;-32.8700;-19.6900;-13.1800
1286.0180;-32.8100;-19.6500;-13.1600
1286.2170;-32.5700;-19.5800;-12.9900
1286.4160;-32.2100;-19.5400;-12.6700
1286.6150;-31.7500;-19.4900;-12.2600
1286.8140;-31.1900;-19.4300;-11.7600
1287.0130;-30.5900;-19.3900;-11.2000
1287.2120;-29.9500;-19.3300;-10.6200
1287.4120;-29.3100;-19.2900;-10.0200
1287.6110;-28.6700;-19.2300;-9.4400
1287.8100;-28.0400;-19.1800;-8.8600
1288.0090;-27.4400;-19.1400;-8.3000
1288.2080;-26.8500;-19.0800;-7.7700
1288.4070;-26.3000;-19.0500;-7.2500
1288.6060;-25.6700;-19.0000;-6.6700
1288.8050;-25.2600;-18.9600;-6.3000
1289.0040;-24.7700;-18.9200;-5.8500
1289.2040;-24.3100;-18.8700;-5.4400
1289.4030;-23.8900;-18.8500;-5.0400
1289.6020;-23.4700;-18.8000;-4.6700
1289.8010;-23.0900;-18.7600;-4.3300
1290.0000;-22.7100;-18.7200;-3.9900
1290.1990;-22.3600;-18.6800;-3.6800
1290.3980;-22.0400;-18.6600;-3.3800
1290.5970;-21.7200;-18.6200;-3.1000
1290.7970;-21.4300;-18.5900;-2.8400
1290.9960;-21.1300;-18.5300;-2.6000
1291.1950;-20.8700;-18.5000;-2.3700
1291.3940;-20.6400;-18.4700;-2.1700
1291.5930;-20.4000;-18.4100;-1.9900
1291.7920;-20.2100;-18.3900;-1.8200
1291.9910;-20.0000;-18.3400;-1.6600
1292.1900;-19.8400;-18.3100;-1.5300
1292.3890;-19.6900;-18.2700;-1.4200
1292.5890;-19.5400;-18.2200;-1.3200
1292.7880;-19.4500;-18.2000;-1.2500
1292.9870;-19.3400;-18.1500;-1.1900
1293.1860;-19.2700;-18.1300;-1.1400
1293.3850;-19.2100;-18.0900;-1.1200
1293.5840;-19.1600;-18.0500;-1.1100
1293.7830;-19.1600;-18.0200;-1.1400
1293.9820;-19.1500;-17.9900;-1.1600
1294.1810;-19.1900;-17.9700;-1.2200
1294.3810;-19.2200;-17.9300;-1.2900
1294.5800;-19.2800;-17.8900;-1.3900
1294.7790;-19.3800;-17.8700;-1.5100
1294.9780;-19.4800;-17.8400;-1.6400
1295.1770;-19.6300;-17.8200;-1.8100
1295.3760;-19.7700;-17.7900;-1.9800
1295.5750;-19.9400;-17.7600;-2.1800
1295.7740;-20.1600;-17.7300;-2.4300
1295.9740;-20.3800;-17.6900;-2.6900
1296.1730;-20.6600;-17.6800;-2.9800
1296.3720;-20.9400;-17.6500;-3.2900
1296.5710;-21.2700;-17.6300;-3.6400
1296.7700;-21.6300;-17.6000;-4.0300
1296.9690;-22.0200;-17.5800;-4.4400
1297.1680;-22.4700;-17.5700;-4.9000
1297.3670;-22.9400;-17.5500;-5.3900
1297.5660;-23.4600;-17.5300;-5.9300
1297.7660;-24.0400;-17.5100;-6.5300
1297.9650;-24.6800;-17.4900;-7.1900
1298.1640;-25.4000;-17.4800;-7.9200
1298.3630;-26.1800;-17.4700;-8.7100
1298.5620;-27.0500;-17.4600;-9.5900
1298.7610;-28.0100;-17.4400;-10.5700
1298.9600;-29.3400;-17.4400;-11.9000
1299.1590;-30.3000;-17.4300;-12.8700
1299.3580;-31.5900;-17.4200;-14.1700
1299.5580;-32.9200;-17.4200;-15.5000
1299.7570;-34.1600;-17.4100;-16.7500
1299.9560;-35.0400;-17.4100;-17.6300
1300.1550;-35.1700;-17.4000;-17.7700
1300.3540;-34.5500;-17.4000;-17.1500
1300.5530;-33.4100;-17.4000;-16.0100
1300.7520;-32.1200;-17.3900;-14.7300
1300.9510;-30.8500;-17.4000;-13.4500
1301.1500;-29.6500;-17.4000;-12.2500
1301.3500;-28.5900;-17.4000;-11.1900
1301.5490;-27.6200;-17.4100;-10.2100
1301.7480;-26.7600;-17.4100;-9.3500
1301.9470;-25.8600;-17.4200;-8.4400
1302.1460;-25.3000;-17.4200;-7.8800
1302.3450;-24.7000;-17.4300;-7.2700
1302.5440;-24.1300;-17.4300;-6.7000
1302.7430;-23.6300;-17.4300;-6.2000
1302.9430;-23.1700;-17.4400;-5.7300
1303.1420;-22.7600;-17.4400;-5.3200
1303.3410;-22.4000;-17.4600;-4.9400
1303.5400;-22.0700;-17.4600;-4.6100
1303.7390;-21.7900;-17.4600;-4.3300
1303.9380;-21.5100;-17.4700;-4.0400
1304.1370;-21.2900;-17.4800;-3.8100
1304.3360;-21.0900;-17.5000;-3.5900
1304.5350;-20.9200;-17.5000;-3.4200
1304.7350;-20.8000;-17.5100;-3.2900
1304.9340;-20.6600;-17.5200;-3.1400
1305.1330;-20.5800;-17.5300;-3.0500
1305.3320;-20.5200;-17.5500;-2.9700
1305.5310;-20.4800;-17.5600;-2.9200
1305.7300;-20.4700;-17.5800;-2.8900
1305.9290;-20.4600;-17.5800;-2.8800
1306.1280;-20.5000;-17.6000;-2.9000
1306.3270;-20.5500;-17.6100;-2.9400
1306.5270;-20.6300;-17.6300;-3.0000
1306.7260;-20.7400;-17.6500;-3.0900
1306.9250;-20.8500;-17.6500;-3.2000
1307.1240;-21.0100;-17.6800;-3.3300
1307.3230;-21.1700;-17.6900;-3.4800
1307.5220;-21.3700;-17.7100;-3.6600
1307.7210;-21.6100;-17.7400;-3.8700
1307.9200;-21.8500;-17.7500;-4.1000
1308.1200;-22.1400;-17.7900;-4.3500
1308.3190;-22.4400;-17.8000;-4.6400
1308.5180;-22.7900;-17.8400;-4.9500
1308.7170;-23.1700;-17.8800;-5.2900
1308.9160;-23.5700;-17.8900;-5.6800
1309.1150;-24.0300;-17.9400;-6.0900
1309.3140;-24.5100;-17.9600;-6.5500
1309.5130;-25.0400;-18.0100;-7.0300
1309.7120;-25.6000;-18.0500;-7.5500
