Wavelength;Intensity_Meas;Intensity_Ref;Difference_dB
1200.0000;-61.4000;-57.3300;-4.0700
1200.1990;-61.3200;-57.3100;-4.0100
1200.3980;-61.2600;-57.2900;-3.9700
1200.5970;-61.2200;-57.2600;-3.9600
1200.7970;-61.1600;-57.2100;-3.9500
1200.9960;-61.0800;-57.2000;-3.8800
1201.1950;-61.0400;-57.1800;-3.8600
1201.3940;-61.0200;-57.1100;-3.9100
1201.5930;-60.9800;-57.0700;-3.9100
1201.7920;-60.9000;-57.0200;-3.8800
1201.9910;-60.8800;-56.9800;-3.9000
1202.1900;-60.8000;-56.9500;-3.8500
1202.3890;-60.7800;-56.8700;-3.9100
1202.5890;-60.7400;-56.8000;-3.9400
1202.7880;-60.7100;-56.7800;-3.9300
1202.9870;-60.6700;-56.7300;-3.9400
1203.1860;-60.6500;-56.6800;-3.9700
1203.3850;-60.6700;-56.6000;-4.0700
1203.5840;-60.6400;-56.5700;-4.0700
1203.7830;-60.5800;-56.5400;-4.0400
1203.9820;-60.6000;-56.4900;-4.1100
1204.1810;-60.6000;-56.4500;-4.1500
1204.3810;-60.5800;-56.3900;-4.1900
1204.5800;-60.5900;-56.3900;-4.2000
1204.7790;-60.5800;-56.3700;-4.2100
1204.9780;-60.6200;-56.3100;-4.3100
1205.1770;-60.6400;-56.2800;-4.3600
1205.3760;-60.6200;-56.2700;-4.3500
1205.5750;-60.6600;-56.2500;-4.4100
1205.7740;-60.6600;-56.2300;-4.4300
1205.9740;-60.6900;-56.2100;-4.4800
1206.1730;-60.6200;-56.2000;-4.4200
1206.3720;-60.6600;-56.1800;-4.4800
1206.5710;-60.6500;-56.1600;-4.4900
1206.7700;-60.6300;-56.1400;-4.4900
1206.9690;-60.6000;-56.1000;-4.5000
1207.1680;-60.5000;-56.1000;-4.4000
1207.3670;-60.5000;-56.0800;-4.4200
1207.5660;-60.4400;-56.0200;-4.4200
1207.7660;-60.3700;-56.0100;-4.3600
1207.9650;-60.2900;-55.9800;-4.3100
1208.1640;-60.2300;-55.9400;-4.2900
1208.3630;-60.1900;-55.8900;-4.3000
1208.5620;-60.1000;-55.8600;-4.2400
1208.7610;-59.9600;-55.8300;-4.1300
1208.9600;-59.9200;-55.7800;-4.1400
1209.1590;-59.8700;-55.7300;-4.1400
1209.3580;-59.7800;-55.6600;-4.1200
1209.5580;-59.6900;-55.6200;-4.0700
1209.7570;-59.6100;-55.6000;-4.0100
1209.9560;-59.5800;-55.5300;-4.0500
1210.1550;-59.5200;-55.4600;-4.0600
1210.3540;-59.4200;-55.4200;-4.0000
1210.5530;-59.3600;-55.3900;-3.9700
1210.7520;-59.3200;-55.3400;-3.9800
1210.9510;-59.2900;-55.2800;-4.0100
1211.1500;-59.2000;-55.2400;-3.9600
1211.3500;-59.1300;-55.2000;-3.9300
1211.5490;-59.1200;-55.1800;-3.9400
1211.7480;-59.0900;-55.1500;-3.9400
1211.9470;-59.0500;-55.0800;-3.9700
1212.1460;-58.9800;-55.0700;-3.9100
1212.3450;-58.9700;-55.0500;-3.9200
1212.5440;-58.9900;-55.0100;-3.9800
1212.7430;-58.9500;-54.9800;-3.9700
1212.9430;-58.9100;-54.9500;-3.9600
1213.1420;-58.9100;-54.9200;-3.9900
1213.3410;-58.9300;-54.8900;-4.0400
1213.5400;-58.9100;-54.8700;-4.0400
1213.7390;-58.8900;-54.8500;-4.0400
1213.9380;-58.8900;-54.8000;-4.0900
1214.1370;-58.9100;-54.7900;-4.1200
1214.3360;-58.9000;-54.7300;-4.1700
1214.5350;-58.8900;-54.7000;-4.1900
1214.7350;-58.8600;-54.6800;-4.1800
1214.9340;-58.9100;-54.6300;-4.2800
1215.1330;-58.8600;-54.5800;-4.2800
1215.3320;-58.8200;-54.5300;-4.2900
1215.5310;-58.8100;-54.4900;-4.3200
1215.7300;-58.8000;-54.4500;-4.3500
1215.9290;-58.8000;-54.3900;-4.4100
1216.1280;-58.7400;-54.3300;-4.4100
1216.3270;-58.6900;-54.2600;-4.4300
1216.5270;-58.7000;-54.2300;-4.4700
1216.7260;-58.6800;-54.1800;-4.5000
1216.9250;-58.6500;-54.1000;-4.5500
1217.1240;-58.5900;-54.0500;-4.5400
1217.3230;-58.5600;-53.9900;-4.5700
1217.5220;-58.5900;-53.9400;-4.6500
1217.7210;-58.5400;-53.9000;-4.6400
1217.9200;-58.5000;-53.8400;-4.6600
1218.1200;-58.4900;-53.8000;-4.6900
1218.3190;-58.4900;-53.7500;-4.7400
1218.5180;-58.4700;-53.7100;-4.7600
1218.7170;-58.4300;-53.6600;-4.7700
1218.9160;-58.4300;-53.6300;-4.8000
1219.1150;-58.4300;-53.6100;-4.8200
1219.3140;-58.4100;-53.5500;-4.8600
1219.5130;-58.3800;-53.5300;-4.8500
1219.7120;-58.3600;-53.5100;-4.8500
1219.9120;-58.3700;-53.4600;-4.9100
1220.1110;-58.3300;-53.4300;-4.9000
1220.3100;-58.2800;-53.3900;-4.8900
1220.5090;-58.2500;-53.3500;-4.9000
1220.7080;-58.2400;-53.3300;-4.9100
1220.9070;-58.2400;-53.2800;-4.9600
1221.1060;-58.1300;-53.2200;-4.9100
1221.3050;-58.0700;-53.1900;-4.8800
1221.5040;-58.0400;-53.1400;-4.9000
1221.7040;-58.0000;-53.0800;-4.9200
1221.9030;-57.9200;-53.0300;-4.8900
1222.1020;-57.8300;-52.9700;-4.8600
1222.3010;-57.7900;-52.9100;-4.8800
1222.5000;-57.7300;-52.8400;-4.8900
1222.6990;-57.6200;-52.7900;-4.8300
1222.8980;-57.5400;-52.7100;-4.8300
1223.0970;-57.4600;-52.6500;-4.8100
1223.2970;-57.4100;-52.5800;-4.8300
1223.4960;-57.2900;-52.5000;-4.7900
1223.6950;-57.1900;-52.4500;-4.7400
1223.8940;-57.1400;-52.3800;-4.7600
1224.0930;-57.0500;-52.3100;-4.7400
1224.2920;-56.9500;-52.2400;-4.7100
1224.4910;-56.8300;-52.1800;-4.6500
1224.6900;-56.7300;-52.1300;-4.6000
1224.8890;-56.6400;-52.0500;-4.5900
1225.0890;-56.5000;-52.0100;-4.4900
1225.2880;-56.3400;-51.9300;-4.4100
1225.4870;-56.2200;-51.8700;-4.3500
1225.6860;-56.1000;-51.8400;-4.2600
1225.8850;-55.9500;-51.7800;-4.1700
1226.0840;-55.7200;-51.7300;-3.9900
1226.2830;-55.6300;-51.6800;-3.9500
1226.4820;-55.4800;-51.6200;-3.8600
1226.6810;-55.3300;-51.5900;-3.7400
1226.8810;-55.1800;-51.5400;-3.6400
1227.0800;-55.0500;-51.4800;-3.5700
1227.2790;-54.9600;-51.4400;-3.5200
1227.4780;-54.8200;-51.3800;-3.4400
1227.6770;-54.7300;-51.3400;-3.3900
1227.8760;-54.6800;-51.2700;-3.4100
1228.0750;-54.6200;-51.2200;-3.4000
1228.2740;-54.5700;-51.1500;-3.4200
1228.4740;-54.5200;-51.0800;-3.4400
1228.6730;-54.5100;-51.0300;-3.4800
1228.8720;-54.5300;-50.9500;-3.5800
1229.0710;-54.5100;-50.8900;-3.6200
1229.2700;-54.5400;-50.8100;-3.7300
1229.4690;-54.5700;-50.7200;-3.8500
1229.6680;-54.6100;-50.6700;-3.9400
1229.8670;-54.6400;-50.5700;-4.0700
1230.0660;-54.6800;-50.4900;-4.1900
1230.2660;-54.7400;-50.4100;-4.3300
1230.4650;-54.7800;-50.3300;-4.4500
1230.6640;-54.8100;-50.2600;-4.5500
1230.8630;-54.8700;-50.1800;-4.6900
1231.0620;-54.9100;-50.1100;-4.8000
1231.2610;-54.9500;-50.0500;-4.9000
1231.4600;-54.9400;-49.9800;-4.9600
1231.6590;-54.9000;-49.9300;-4.9700
1231.8580;-54.8700;-49.8500;-5.0200
1232.0580;-54.7900;-49.8100;-4.9800
1232.2570;-54.6700;-49.7400;-4.9300
1232.4560;-54.5300;-49.6800;-4.8500
1232.6550;-54.3800;-49.6400;-4.7400
1232.8540;-54.1900;-49.5700;-4.6200
1233.0530;-53.9700;-49.5300;-4.4400
1233.2520;-53.7700;-49.4600;-4.3100
1233.4510;-53.5500;-49.4100;-4.1400
1233.6500;-53.3500;-49.3700;-3.9800
1233.8500;-53.1400;-49.3000;-3.8400
1234.0490;-52.9600;-49.2500;-3.7100
1234.2480;-52.8100;-49.1800;-3.6300
1234.4470;-52.6400;-49.1200;-3.5200
1234.6460;-52.5100;-49.0600;-3.4500
1234.8450;-52.4200;-48.9900;-3.4300
1235.0440;-52.3300;-48.9300;-3.4000
1235.2430;-52.2800;-48.8400;-3.4400
1235.4430;-52.2100;-48.7600;-3.4500
1235.6420;-52.2000;-48.6900;-3.5100
1235.8410;-52.1800;-48.6000;-3.5800
1236.0400;-52.1700;-48.5300;-3.6400
1236.2390;-52.1800;-48.4200;-3.7600
1236.4380;-52.1900;-48.3300;-3.8600
1236.6370;-52.2100;-48.2500;-3.9600
1236.8360;-52.2100;-48.1500;-4.0600
1237.0350;-52.2200;-48.0800;-4.1400
1237.2350;-52.2500;-47.9900;-4.2600
1237.4340;-52.2300;-47.9000;-4.3300
1237.6330;-52.2200;-47.8100;-4.4100
1237.8320;-52.2000;-47.7400;-4.4600
1238.0310;-52.1700;-47.6600;-4.5100
1238.2300;-52.1400;-47.5700;-4.5700
1238.4290;-52.0600;-47.5000;-4.5600
1238.6280;-52.0000;-47.4200;-4.5800
1238.8270;-51.9100;-47.3400;-4.5700
1239.0270;-51.8200;-47.2700;-4.5500
1239.2260;-51.7100;-47.1800;-4.5300
1239.4250;-51.5900;-47.1100;-4.4800
1239.6240;-51.5000;-47.0300;-4.4700
1239.8230;-51.3600;-46.9400;-4.4200
1240.0220;-51.2300;-46.8700;-4.3600
1240.2210;-51.1300;-46.7700;-4.3600
1240.4200;-51.0000;-46.6900;-4.3100
1240.6200;-50.9000;-46.5900;-4.3100
1240.8190;-50.7800;-46.4900;-4.2900
1241.0180;-50.6800;-46.3800;-4.3000
1241.2170;-50.5900;-46.2700;-4.3200
1241.4160;-50.4900;-46.1700;-4.3200
1241.6150;-50.4100;-46.0300;-4.3800
1241.8140;-50.3400;-45.9100;-4.4300
1242.0130;-50.2700;-45.8000;-4.4700
1242.2120;-50.2100;-45.6900;-4.5200
1242.4120;-50.1400;-45.5600;-4.5800
1242.6110;-50.0900;-45.4200;-4.6700
1242.8100;-50.0200;-45.3100;-4.7100
1243.0090;-49.9400;-45.1700;-4.7700
1243.2080;-49.8900;-45.0500;-4.8400
1243.4070;-49.8200;-44.9200;-4.9000
1243.6060;-49.7500;-44.7900;-4.9600
1243.8050;-49.6800;-44.6800;-5.0000
1244.0040;-49.6100;-44.5400;-5.0700
1244.2040;-49.5600;-44.4100;-5.1500
1244.4030;-49.4800;-44.2900;-5.1900
1244.6020;-49.4300;-44.1600;-5.2700
1244.8010;-49.3800;-44.0500;-5.3300
1245.0000;-49.3300;-43.9100;-5.4200
1245.1990;-49.2900;-43.7900;-5.5000
1245.3980;-49.2500;-43.6700;-5.5800
1245.5970;-49.2200;-43.5300;-5.6900
1245.7970;-49.1500;-43.4100;-5.7400
1245.9960;-49.0700;-43.2600;-5.8100
1246.1950;-49.0100;-43.1400;-5.8700
1246.3940;-48.8900;-43.0000;-5.8900
1246.5930;-48.7400;-42.8500;-5.8900
1246.7920;-48.5500;-42.7300;-5.8200
1246.9910;-48.3200;-42.5600;-5.7600
1247.1900;-48.0600;-42.4200;-5.6400
1247.3890;-47.7500;-42.2700;-5.4800
1247.5890;-47.4200;-42.1100;-5.3100
1247.7880;-47.0400;-41.9700;-5.0700
1247.9870;-46.6400;-41.8000;-4.8400
1248.1860;-46.2400;-41.6500;-4.5900
1248.3850;-45.7700;-41.5000;-4.2700
1248.5840;-45.4200;-41.3300;-4.0900
1248.7830;-45.0100;-41.1800;-3.8300
1248.9820;-44.6400;-41.0200;-3.6200
1249.1810;-44.2600;-40.8700;-3.3900
1249.3810;-43.9000;-40.7200;-3.1800
1249.5800;-43.5600;-40.5600;-3.0000
1249.7790;-43.2500;-40.4200;-2.8300
1249.9780;-42.9600;-40.2500;-2.7100
1250.1770;-42.6800;-40.1100;-2.5700
1250.3760;-42.4500;-39.9700;-2.4800
1250.5750;-42.2300;-39.8100;-2.4200
1250.7740;-42.0200;-39.6700;-2.3500
1250.9740;-41.8600;-39.5200;-2.3400
1251.1730;-41.6900;-39.3800;-2.3100
1251.3720;-41.5400;-39.2300;-2.3100
1251.5710;-41.4200;-39.0900;-2.3300
1251.7700;-41.2900;-38.9500;-2.3400
1251.9690;-41.1900;-38.7900;-2.4000
1252.1680;-41.0600;-38.6400;-2.4200
1252.3670;-40.9600;-38.4700;-2.4900
1252.5660;-40.8700;-38.3200;-2.5500
1252.7660;-40.7500;-38.1700;-2.5800
1252.9650;-40.6600;-38.0100;-2.6500
1253.1640;-40.5300;-37.8500;-2.6800
1253.3630;-40.4200;-37.6800;-2.7400
1253.5620;-40.2900;-37.5200;-2.7700
1253.7610;-40.1500;-37.3500;-2.8000
1253.9600;-40.0200;-37.1900;-2.8300
1254.1590;-39.8600;-37.0300;-2.8300
1254.3580;-39.7000;-36.8500;-2.8500
1254.5580;-39.5400;-36.7000;-2.8400
1254.7570;-39.3600;-36.5400;-2.8200
1254.9560;-39.1900;-36.3700;-2.8200
1255.1550;-39.0100;-36.2300;-2.7800
1255.3540;-38.8400;-36.0600;-2.7800
1255.5530;-38.6500;-35.9200;-2.7300
1255.7520;-38.4600;-35.7400;-2.7200
1255.9510;-38.2800;-35.6300;-2.6500
1256.1500;-38.0900;-35.4900;-2.6000
1256.3500;-37.9100;-35.3400;-2.5700
1256.5490;-37.7200;-35.2200;-2.5000
1256.7480;-37.5300;-35.0700;-2.4600
1256.9470;-37.3500;-34.9400;-2.4100
1257.1460;-37.1500;-34.8000;-2.3500
1257.3450;-36.9600;-34.6600;-2.3000
1257.5440;-36.7700;-34.5400;-2.2300
1257.7430;-36.5600;-34.3900;-2.1700
1257.9430;-36.3700;-34.2500;-2.1200
1258.1420;-36.1700;-34.1200;-2.0500
1258.3410;-35.9700;-33.9700;-2.0000
1258.5400;-35.7300;-33.8400;-1.8900
1258.7390;-35.5700;-33.6800;-1.8900
1258.9380;-35.3500;-33.5400;-1.8100
1259.1370;-35.1500;-33.3900;-1.7600
1259.3360;-34.9600;-33.2400;-1.7200
1259.5350;-34.7600;-33.1000;-1.6600
1259.7350;-34.5700;-32.9400;-1.6300
1259.9340;-34.3600;-32.8000;-1.5600
1260.1330;-34.1800;-32.6500;-1.5300
1260.3320;-34.0000;-32.4900;-1.5100
1260.5310;-33.8200;-32.3600;-1.4600
1260.7300;-33.6500;-32.2000;-1.4500
1260.9290;-33.4600;-32.0700;-1.3900
1261.1280;-33.3000;-31.9200;-1.3800
1261.3270;-33.1400;-31.7700;-1.3700
1261.5270;-32.9800;-31.6500;-1.3300
1261.7260;-32.8400;-31.5100;-1.3300
1261.9250;-32.6800;-31.3800;-1.3000
1262.1240;-32.5300;-31.2400;-1.2900
1262.3230;-32.3800;-31.1100;-1.2700
1262.5220;-32.2400;-31.0000;-1.2400
1262.7210;-32.1100;-30.8600;-1.2500
1262.9200;-31.9500;-30.7400;-1.2100
1263.1200;-31.8100;-30.6000;-1.2100
1263.3190;-31.6600;-30.4700;-1.1900
1263.5180;-31.5200;-30.3600;-1.1600
1263.7170;-31.3900;-30.2100;-1.1800
1263.9160;-31.2300;-30.0900;-1.1400
1264.1150;-31.0900;-29.9500;-1.1400
1264.3140;-30.9400;-29.8100;-1.1300
1264.5130;-30.8000;-29.6900;-1.1100
1264.7120;-30.6600;-29.5500;-1.1100
1264.9120;-30.5100;-29.4200;-1.0900
1265.1110;-30.3700;-29.2700;-1.1000
1265.3100;-30.2200;-29.1400;-1.0800
1265.5090;-30.0900;-29.0100;-1.0800
1265.7080;-29.9600;-28.8700;-1.0900
1265.9070;-29.8200;-28.7500;-1.0700
1266.1060;-29.6900;-28.6100;-1.0800
1266.3050;-29.5700;-28.4800;-1.0900
1266.5040;-29.4600;-28.3700;-1.0900
1266.7040;-29.3600;-28.2400;-1.1200
1266.9030;-29.2500;-28.1200;-1.1300
1267.1020;-29.1600;-27.9900;-1.1700
1267.3010;-29.0600;-27.8700;-1.1900
1267.5000;-28.9900;-27.7700;-1.2200
1267.6990;-28.9300;-27.6500;-1.2800
1267.8980;-28.8500;-27.5500;-1.3000
1268.0970;-28.8200;-27.4300;-1.3900
1268.2970;-28.7700;-27.3200;-1.4500
1268.4960;-28.7400;-27.2200;-1.5200
1268.6950;-28.7300;-27.1000;-1.6300
1268.8940;-28.7100;-27.0000;-1.7100
1269.0930;-28.7300;-26.8800;-1.8500
1269.2920;-28.7500;-26.7700;-1.9800
1269.4910;-28.8000;-26.6600;-2.1400
1269.6900;-28.8700;-26.5400;-2.3300
1269.8890;-28.9500;-26.4400;-2.5100
1270.0890;-29.0600;-26.3100;-2.7500
1270.2880;-29.2000;-26.2000;-3.0000
1270.4870;-29.3700;-26.0700;-3.3000
1270.6860;-29.5900;-25.9700;-3.6200
1270.8850;-29.8300;-25.8500;-3.9800
1271.0840;-30.1300;-25.7300;-4.4000
1271.2830;-30.4600;-25.6300;-4.8300
1271.4820;-30.8400;-25.5000;-5.3400
1271.6810;-31.3000;-25.3900;-5.9100
1271.8810;-31.8000;-25.2800;-6.5200
1272.0800;-32.3800;-25.1700;-7.2100
1272.2790;-33.0100;-25.0600;-7.9500
1272.4780;-33.7100;-24.9500;-8.7600
1272.6770;-34.4700;-24.8500;-9.6200
1272.8760;-35.2400;-24.7400;-10.5000
1273.0750;-36.0000;-24.6500;-11.3500
1273.2740;-36.6400;-24.5600;-12.0800
1273.4740;-37.0600;-24.4500;-12.6100
1273.6730;-37.1500;-24.3700;-12.7800
1273.8720;-36.8900;-24.2700;-12.6200
1274.0710;-36.3200;-24.1800;-12.1400
1274.2700;-35.5200;-24.0900;-11.4300
1274.4690;-34.6500;-23.9900;-10.6600
1274.6680;-33.7400;-23.9100;-9.8300
1274.8670;-32.8700;-23.8100;-9.0600
1275.0660;-32.0500;-23.7200;-8.3300
1275.2660;-31.2900;-23.6400;-7.6500
1275.4650;-30.6000;-23.5400;-7.0600
1275.6640;-29.9600;-23.4600;-6.5000
1275.8630;-29.3900;-23.3600;-6.0300
1276.0620;-28.8800;-23.2700;-5.6100
1276.2610;-28.4200;-23.1800;-5.2400
1276.4600;-28.0400;-23.0900;-4.9500
1276.6590;-27.6700;-23.0000;-4.6700
1276.8580;-27.3800;-22.9000;-4.4800
1277.0580;-27.1300;-22.8200;-4.3100
1277.2570;-26.9100;-22.7300;-4.1800
1277.4560;-26.7600;-22.6400;-4.1200
1277.6550;-26.6200;-22.5700;-4.0500
1277.8540;-26.5300;-22.4700;-4.0600
1278.0530;-26.4700;-22.4000;-4.0700
1278.2520;-26.4400;-22.3100;-4.1300
1278.4510;-26.4500;-22.2300;-4.2200
1278.6500;-26.4600;-22.1600;-4.3000
1278.8500;-26.5100;-22.0700;-4.4400
1279.0490;-26.5800;-22.0000;-4.5800
1279.2480;-26.6500;-21.9200;-4.7300
1279.4470;-26.7500;-21.8400;-4.9100
1279.6460;-26.8300;-21.7700;-5.0600
1279.8450;-26.9300;-21.6800;-5.2500
1280.0440;-27.0100;-21.6200;-5.3900
1280.2430;-27.0900;-21.5400;-5.5500
1280.4430;-27.1600;-21.4600;-5.7000
1280.6420;-27.2000;-21.3900;-5.8100
1280.8410;-27.2500;-21.3100;-5.9400
1281.0400;-27.2500;-21.2400;-6.0100
1281.2390;-27.2400;-21.1600;-6.0800
1281.4380;-27.2200;-21.0800;-6.1400
1281.6370;-27.1800;-21.0100;-6.1700
1281.8360;-27.1400;-20.9300;-6.2100
1282.0350;-27.0700;-20.8700;-6.2000
1282.2350;-27.0200;-20.7800;-6.2400
1282.4340;-26.9600;-20.7100;-6.2500
1282.6330;-26.9100;-20.6500;-6.2600
1282.8320;-26.8700;-20.5800;-6.2900
1283.0310;-26.8300;-20.5200;-6.3100
1283.2300;-26.8200;-20.4500;-6.3700
1283.4290;-26.8100;-20.3900;-6.4200
1283.6280;-26.8200;-20.3200;-6.5000
1283.8270;-26.8600;-20.2600;-6.6000
1284.0270;-26.9000;-20.2100;-6.6900
1284.2260;-26.9700;-20.1400;-6.8300
1284.4250;-27.0300;-20.0900;-6.9400
1284.6240;-27.1200;-20.0300;-7.0900
1284.8230;-27.2200;-19.9700;-7.2500
1285.0220;-27.3000;-19.9300;-7.3700
1285.2210;-27.4000;-19.8600;-7.5400
1285.4200;-27.4700;-19.8100;-7.6600
1285.6200;-27.5200;-19.7500;-7.7700
1285.8190;-27.5600;-19.6900;-7.8700
1286.0180;-27.5400;-19.6500;-7.8900
1286.2170;-27.5000;-19.5800;-7.9200
1286.4160;-27.3900;-19.5400;-7.8500
1286.6150;-27.2500;-19.4900;-7.7600
1286.8140;-27.0500;-19.4300;-7.6200
1287.0130;-26.7900;-19.3900;-7.4000
1287.2120;-26.5100;-19.3300;-7.1800
1287.4120;-26.1600;-19.2900;-6.8700
1287.6110;-25.7600;-19.2300;-6.5300
1287.8100;-25.4300;-19.1800;-6.2500
1288.0090;-25.0400;-19.1400;-5.9000
1288.2080;-24.6300;-19.0800;-5.5500
1288.4070;-24.2200;-19.0500;-5.1700
1288.6060;-23.8400;-19.0000;-4.8400
1288.8050;-23.4400;-18.9600;-4.4800
1289.0040;-23.0600;-18.9200;-4.1400
1289.2040;-22.6900;-18.8700;-3.8200
1289.4030;-22.3300;-18.8500;-3.4800
1289.6020;-22.0100;-18.8000;-3.2100
1289.8010;-21.6800;-18.7600;-2.9200
1290.0000;-21.3900;-18.7200;-2.6700
1290.1990;-21.1100;-18.6800;-2.4300
1290.3980;-20.8400;-18.6600;-2.1800
1290.5970;-20.6200;-18.6200;-2.0000
1290.7970;-20.3800;-18.5900;-1.7900
1290.9960;-20.1700;-18.5300;-1.6400
1291.1950;-19.9800;-18.5000;-1.4800
1291.3940;-19.8100;-18.4700;-1.3400
1291.5930;-19.6700;-18.4100;-1.2600
1291.7920;-19.5300;-18.3900;-1.1400
1291.9910;-19.4400;-18.3400;-1.1000
1292.1900;-19.3500;-18.3100;-1.0400
1292.3890;-19.2900;-18.2700;-1.0200
1292.5890;-19.2400;-18.2200;-1.0200
1292.7880;-19.2200;-18.2000;-1.0200
1292.9870;-19.2300;-18.1500;-1.0800
1293.1860;-19.2400;-18.1300;-1.1100
1293.3850;-19.2900;-18.0900;-1.2000
1293.5840;-19.3500;-18.0500;-1.3000
1293.7830;-19.4300;-18.0200;-1.4100
1293.9820;-19.5600;-17.9900;-1.5700
1294.1810;-19.6900;-17.9700;-1.7200
1294.3810;-19.8600;-17.9300;-1.9300
1294.5800;-20.0300;-17.8900;-2.1400
1294.7790;-20.2500;-17.8700;-2.3800
1294.9780;-20.5100;-17.8400;-2.6700
1295.1770;-20.7800;-17.8200;-2.9600
1295.3760;-21.0900;-17.7900;-3.3000
1295.5750;-21.4200;-17.7600;-3.6600
1295.7740;-21.7900;-17.7300;-4.0600
1295.9740;-22.2100;-17.6900;-4.5200
1296.1730;-22.6600;-17.6800;-4.9800
1296.3720;-23.1800;-17.6500;-5.5300
1296.5710;-23.7200;-17.6300;-6.0900
1296.7700;-24.3300;-17.6000;-6.7300
1296.9690;-25.0000;-17.5800;-7.4200
1297.1680;-25.7400;-17.5700;-8.1700
1297.3670;-26.5800;-17.5500;-9.0300
1297.5660;-27.4700;-17.5300;-9.9400
1297.7660;-28.7100;-17.5100;-11.2000
1297.9650;-29.6400;-17.4900;-12.1500
1298.1640;-30.8900;-17.4800;-13.4100
1298.3630;-32.2400;-17.4700;-14.7700
1298.5620;-33.5700;-17.4600;-16.1100
1298.7610;-34.7100;-17.4400;-17.2700
1298.9600;-35.2500;-17.4400;-17.8100
1299.1590;-34.9800;-17.4300;-17.5500
1299.3580;-34.0300;-17.4200;-16.6100
1299.5580;-32.7300;-17.4200;-15.3100
1299.7570;-31.4100;-17.4100;-14.0000
1299.9560;-30.1300;-17.4100;-12.7200
1300.1550;-28.9700;-17.4000;-11.5700
1300.3540;-27.9400;-17.4000;-10.5400
1300.5530;-26.9900;-17.4000;-9.5900
1300.7520;-26.1700;-17.3900;-8.7800
1300.9510;-25.2900;-17.4000;-7.8900
1301.1500;-24.7600;-17.4000;-7.3600
1301.3500;-24.1500;-17.4000;-6.7500
1301.5490;-23.6100;-17.4100;-6.2000
1301.7480;-23.1200;-17.4100;-5.7100
1301.9470;-22.6600;-17.4200;-5.2400
1302.1460;-22.2900;-17.4200;-4.8700
1302.3450;-21.9100;-17.4300;-4.4800
1302.5440;-21.5900;-17.4300;-4.1600
1302.7430;-21.3000;-17.4300;-3.8700
1302.9430;-21.0300;-17.4400;-3.5900
1303.1420;-20.8200;-17.4400;-3.3800
1303.3410;-20.6000;-17.4600;-3.1400
1303.5400;-20.4500;-17.4600;-2.9900
1303.7390;-20.2900;-17.4600;-2.8300
1303.9380;-20.1600;-17.4700;-2.6900
1304.1370;-20.0900;-17.4800;-2.6100
1304.3360;-20.0100;-17.5000;-2.5100
1304.5350;-19.9800;-17.5000;-2.4800
1304.7350;-19.9500;-17.5100;-2.4400
1304.9340;-19.9500;-17.5200;-2.4300
1305.1330;-19.9900;-17.5300;-2.4600
1305.3320;-20.0300;-17.5500;-2.4800
1305.5310;-20.1300;-17.5600;-2.5700
1305.7300;-20.2100;-17.5800;-2.6300
1305.9290;-20.3400;-17.5800;-2.7600
1306.1280;-20.5000;-17.6000;-2.9000
1306.3270;-20.6700;-17.6100;-3.0600
1306.5270;-20.8900;-17.6300;-3.2600
1306.7260;-21.1100;-17.6500;-3.4600
1306.9250;-21.3700;-17.6500;-3.7200
1307.1240;-21.6700;-17.6800;-3.9900
1307.3230;-21.9900;-17.6900;-4.3000
1307.5220;-22.3700;-17.7100;-4.6600
1307.7210;-22.7600;-17.7400;-5.0200
1307.9200;-23.2000;-17.7500;-5.4500
1308.1200;-23.6900;-17.7900;-5.9000
1308.3190;-24.2200;-17.8000;-6.4200
1308.5180;-24.8300;-17.8400;-6.9900
1308.7170;-25.4700;-17.8800;-7.5900
1308.9160;-26.1900;-17.8900;-8.3000
1309.1150;-26.9800;-17.9400;-9.0400
1309.3140;-27.8500;-17.9600;-9.8900
1309.5130;-29.0300;-18.0100;-11.0200
1309.7120;-29.9000;-18.0500;-11.8500
1309.9120;-31.0600;-18.0700;-12.9900
