Wavelength;Intensity_Meas;Intensity_Ref;Difference_dB
1200.0000;-61.4000;-57.3300;-4.0700
1200.1990;-61.3300;-57.3100;-4.0200
1200.3980;-61.2600;-57.2900;-3.9700
1200.5970;-61.2000;-57.2600;-3.9400
1200.7970;-61.1700;-57.2100;-3.9600
1200.9960;-61.1200;-57.2000;-3.9200
1201.1950;-61.0500;-57.1800;-3.8700
1201.3940;-61.0100;-57.1100;-3.9000
1201.5930;-60.9700;-57.0700;-3.9000
1201.7920;-60.9200;-57.0200;-3.9000
1201.9910;-60.8500;-56.9800;-3.8700
1202.1900;-60.8200;-56.9500;-3.8700
1202.3890;-60.7600;-56.8700;-3.8900
1202.5890;-60.7400;-56.8000;-3.9400
1202.7880;-60.6900;-56.7800;-3.9100
1202.9870;-60.6500;-56.7300;-3.9200
1203.1860;-60.6100;-56.6800;-3.9300
1203.3850;-60.6000;-56.6000;-4.0000
1203.5840;-60.5500;-56.5700;-3.9800
1203.7830;-60.5400;-56.5400;-4.0000
1203.9820;-60.5500;-56.4900;-4.0600
1204.1810;-60.5500;-56.4500;-4.1000
1204.3810;-60.5400;-56.3900;-4.1500
1204.5800;-60.5200;-56.3900;-4.1300
1204.7790;-60.5600;-56.3700;-4.1900
1204.9780;-60.6000;-56.3100;-4.2900
1205.1770;-60.6000;-56.2800;-4.3200
1205.3760;-60.6000;-56.2700;-4.3300
1205.5750;-60.6200;-56.2500;-4.3700
1205.7740;-60.6400;-56.2300;-4.4100
1205.9740;-60.6900;-56.2100;-4.4800
1206.1730;-60.6500;-56.2000;-4.4500
1206.3720;-60.6300;-56.1800;-4.4500
1206.5710;-60.6600;-56.1600;-4.5000
1206.7700;-60.6300;-56.1400;-4.4900
1206.9690;-60.5900;-56.1000;-4.4900
1207.1680;-60.5300;-56.1000;-4.4300
1207.3670;-60.4900;-56.0800;-4.4100
1207.5660;-60.4600;-56.0200;-4.4400
1207.7660;-60.3900;-56.0100;-4.3800
1207.9650;-60.2700;-55.9800;-4.2900
1208.1640;-60.2500;-55.9400;-4.3100
1208.3630;-60.2100;-55.8900;-4.3200
1208.5620;-60.1000;-55.8600;-4.2400
1208.7610;-60.0300;-55.8300;-4.2000
1208.9600;-59.9500;-55.7800;-4.1700
1209.1590;-59.9300;-55.7300;-4.2000
1209.3580;-59.8300;-55.6600;-4.1700
1209.5580;-59.7300;-55.6200;-4.1100
1209.7570;-59.6700;-55.6000;-4.0700
1209.9560;-59.6400;-55.5300;-4.1100
1210.1550;-59.5900;-55.4600;-4.1300
1210.3540;-59.4800;-55.4200;-4.0600
1210.5530;-59.4000;-55.3900;-4.0100
1210.7520;-59.3800;-55.3400;-4.0400
1210.9510;-59.3500;-55.2800;-4.0700
1211.1500;-59.3000;-55.2400;-4.0600
1211.3500;-59.2000;-55.2000;-4.0000
1211.5490;-59.1800;-55.1800;-4.0000
1211.7480;-59.1800;-55.1500;-4.0300
1211.9470;-59.1300;-55.0800;-4.0500
1212.1460;-59.0700;-55.0700;-4.0000
1212.3450;-59.0500;-55.0500;-4.0000
1212.5440;-59.0600;-55.0100;-4.0500
1212.7430;-59.0500;-54.9800;-4.0700
1212.9430;-58.9700;-54.9500;-4.0200
1213.1420;-58.9900;-54.9200;-4.0700
1213.3410;-59.0000;-54.8900;-4.1100
1213.5400;-59.0000;-54.8700;-4.1300
1213.7390;-58.9700;-54.8500;-4.1200
1213.9380;-58.9600;-54.8000;-4.1600
1214.1370;-58.9700;-54.7900;-4.1800
1214.3360;-58.9600;-54.7300;-4.2300
1214.5350;-58.9400;-54.7000;-4.2400
1214.7350;-58.9200;-54.6800;-4.2400
1214.9340;-58.9400;-54.6300;-4.3100
1215.1330;-58.9400;-54.5800;-4.3600
1215.3320;-58.8800;-54.5300;-4.3500
1215.5310;-58.8500;-54.4900;-4.3600
1215.7300;-58.8700;-54.4500;-4.4200
1215.9290;-58.8500;-54.3900;-4.4600
1216.1280;-58.7900;-54.3300;-4.4600
1216.3270;-58.7400;-54.2600;-4.4800
1216.5270;-58.7300;-54.2300;-4.5000
1216.7260;-58.7400;-54.1800;-4.5600
1216.9250;-58.6800;-54.1000;-4.5800
1217.1240;-58.6300;-54.0500;-4.5800
1217.3230;-58.6000;-53.9900;-4.6100
1217.5220;-58.6200;-53.9400;-4.6800
1217.7210;-58.5800;-53.9000;-4.6800
1217.9200;-58.5200;-53.8400;-4.6800
1218.1200;-58.5100;-53.8000;-4.7100
1218.3190;-58.5100;-53.7500;-4.7600
1218.5180;-58.5000;-53.7100;-4.7900
1218.7170;-58.4600;-53.6600;-4.8000
1218.9160;-58.4400;-53.6300;-4.8100
1219.1150;-58.4600;-53.6100;-4.8500
1219.3140;-58.4300;-53.5500;-4.8800
1219.5130;-58.4000;-53.5300;-4.8700
1219.7120;-58.3800;-53.5100;-4.8700
1219.9120;-58.3800;-53.4600;-4.9200
1220.1110;-58.3600;-53.4300;-4.9300
1220.3100;-58.3000;-53.3900;-4.9100
1220.5090;-58.2500;-53.3500;-4.9000
1220.7080;-58.2600;-53.3300;-4.9300
1220.9070;-58.2200;-53.2800;-4.9400
1221.1060;-58.1500;-53.2200;-4.9300
1221.3050;-58.0800;-53.1900;-4.8900
1221.5040;-58.0400;-53.1400;-4.9000
1221.7040;-58.0000;-53.0800;-4.9200
1221.9030;-57.9200;-53.0300;-4.8900
1222.1020;-57.8500;-52.9700;-4.8800
1222.3010;-57.7900;-52.9100;-4.8800
1222.5000;-57.7300;-52.8400;-4.8900
1222.6990;-57.6500;-52.7900;-4.8600
1222.8980;-57.5600;-52.7100;-4.8500
1223.0970;-57.5000;-52.6500;-4.8500
1223.2970;-57.4400;-52.5800;-4.8600
1223.4960;-57.3300;-52.5000;-4.8300
1223.6950;-57.2600;-52.4500;-4.8100
1223.8940;-57.2000;-52.3800;-4.8200
1224.0930;-57.1300;-52.3100;-4.8200
1224.2920;-57.0200;-52.2400;-4.7800
1224.4910;-56.9100;-52.1800;-4.7300
1224.6900;-56.8400;-52.1300;-4.7100
1224.8890;-56.7300;-52.0500;-4.6800
1225.0890;-56.6300;-52.0100;-4.6200
1225.2880;-56.4700;-51.9300;-4.5400
1225.4870;-56.3400;-51.8700;-4.4700
1225.6860;-56.2400;-51.8400;-4.4000
1225.8850;-56.0800;-51.7800;-4.3000
1226.0840;-55.9200;-51.7300;-4.1900
1226.2830;-55.7400;-51.6800;-4.0600
1226.4820;-55.6100;-51.6200;-3.9900
1226.6810;-55.4700;-51.5900;-3.8800
1226.8810;-55.3200;-51.5400;-3.7800
1227.0800;-55.2100;-51.4800;-3.7300
1227.2790;-55.0900;-51.4400;-3.6500
1227.4780;-54.9600;-51.3800;-3.5800
1227.6770;-54.8600;-51.3400;-3.5200
1227.8760;-54.7900;-51.2700;-3.5200
1228.0750;-54.7300;-51.2200;-3.5100
1228.2740;-54.6500;-51.1500;-3.5000
1228.4740;-54.5900;-51.0800;-3.5100
1228.6730;-54.5800;-51.0300;-3.5500
1228.8720;-54.5700;-50.9500;-3.6200
1229.0710;-54.5500;-50.8900;-3.6600
1229.2700;-54.5400;-50.8100;-3.7300
1229.4690;-54.5700;-50.7200;-3.8500
1229.6680;-54.6100;-50.6700;-3.9400
1229.8670;-54.6000;-50.5700;-4.0300
1230.0660;-54.6400;-50.4900;-4.1500
1230.2660;-54.6700;-50.4100;-4.2600
1230.4650;-54.7100;-50.3300;-4.3800
1230.6640;-54.7600;-50.2600;-4.5000
1230.8630;-54.8000;-50.1800;-4.6200
1231.0620;-54.8500;-50.1100;-4.7400
1231.2610;-54.8800;-50.0500;-4.8300
1231.4600;-54.8800;-49.9800;-4.9000
1231.6590;-54.8900;-49.9300;-4.9600
1231.8580;-54.8500;-49.8500;-5.0000
1232.0580;-54.8100;-49.8100;-5.0000
1232.2570;-54.6900;-49.7400;-4.9500
1232.4560;-54.5700;-49.6800;-4.8900
1232.6550;-54.4400;-49.6400;-4.8000
1232.8540;-54.2600;-49.5700;-4.6900
1233.0530;-54.0500;-49.5300;-4.5200
1233.2520;-53.8400;-49.4600;-4.3800
1233.4510;-53.6400;-49.4100;-4.2300
1233.6500;-53.4500;-49.3700;-4.0800
1233.8500;-53.2300;-49.3000;-3.9300
1234.0490;-53.0600;-49.2500;-3.8100
1234.2480;-52.8800;-49.1800;-3.7000
1234.4470;-52.7200;-49.1200;-3.6000
1234.6460;-52.5900;-49.0600;-3.5300
1234.8450;-52.4700;-48.9900;-3.4800
1235.0440;-52.3900;-48.9300;-3.4600
1235.2430;-52.3100;-48.8400;-3.4700
1235.4430;-52.2300;-48.7600;-3.4700
1235.6420;-52.2100;-48.6900;-3.5200
1235.8410;-52.1800;-48.6000;-3.5800
1236.0400;-52.1700;-48.5300;-3.6400
1236.2390;-52.1400;-48.4200;-3.7200
1236.4380;-52.1400;-48.3300;-3.8100
1236.6370;-52.1600;-48.2500;-3.9100
1236.8360;-52.1500;-48.1500;-4.0000
1237.0350;-52.1700;-48.0800;-4.0900
1237.2350;-52.1800;-47.9900;-4.1900
1237.4340;-52.1800;-47.9000;-4.2800
1237.6330;-52.1700;-47.8100;-4.3600
1237.8320;-52.1500;-47.7400;-4.4100
1238.0310;-52.1500;-47.6600;-4.4900
1238.2300;-52.1100;-47.5700;-4.5400
1238.4290;-52.0400;-47.5000;-4.5400
1238.6280;-51.9900;-47.4200;-4.5700
1238.8270;-51.9200;-47.3400;-4.5800
1239.0270;-51.8400;-47.2700;-4.5700
1239.2260;-51.7200;-47.1800;-4.5400
1239.4250;-51.6000;-47.1100;-4.4900
1239.6240;-51.5000;-47.0300;-4.4700
1239.8230;-51.3600;-46.9400;-4.4200
1240.0220;-51.2400;-46.8700;-4.3700
1240.2210;-51.1100;-46.7700;-4.3400
1240.4200;-50.9900;-46.6900;-4.3000
1240.6200;-50.8600;-46.5900;-4.2700
1240.8190;-50.7400;-46.4900;-4.2500
1241.0180;-50.6500;-46.3800;-4.2700
1241.2170;-50.5400;-46.2700;-4.2700
1241.4160;-50.4400;-46.1700;-4.2700
1241.6150;-50.3500;-46.0300;-4.3200
1241.8140;-50.2800;-45.9100;-4.3700
1242.0130;-50.2200;-45.8000;-4.4200
1242.2120;-50.1400;-45.6900;-4.4500
1242.4120;-50.0900;-45.5600;-4.5300
1242.6110;-50.0300;-45.4200;-4.6100
1242.8100;-49.9700;-45.3100;-4.6600
1243.0090;-49.9100;-45.1700;-4.7400
1243.2080;-49.8500;-45.0500;-4.8000
1243.4070;-49.8100;-44.9200;-4.8900
1243.6060;-49.7400;-44.7900;-4.9500
1243.8050;-49.6800;-44.6800;-5.0000
1244.0040;-49.6400;-44.5400;-5.1000
1244.2040;-49.5800;-44.4100;-5.1700
1244.4030;-49.5200;-44.2900;-5.2300
1244.6020;-49.4700;-44.1600;-5.3100
1244.8010;-49.4300;-44.0500;-5.3800
1245.0000;-49.4000;-43.9100;-5.4900
1245.1990;-49.3400;-43.7900;-5.5500
1245.3980;-49.3200;-43.6700;-5.6500
1245.5970;-49.2700;-43.5300;-5.7400
1245.7970;-49.2200;-43.4100;-5.8100
1245.9960;-49.1600;-43.2600;-5.9000
1246.1950;-49.0800;-43.1400;-5.9400
1246.3940;-48.9900;-43.0000;-5.9900
1246.5930;-48.8400;-42.8500;-5.9900
1246.7920;-48.6900;-42.7300;-5.9600
1246.9910;-48.5000;-42.5600;-5.9400
1247.1900;-48.2500;-42.4200;-5.8300
1247.3890;-47.9800;-42.2700;-5.7100
1247.5890;-47.6600;-42.1100;-5.5500
1247.7880;-47.3100;-41.9700;-5.3400
1247.9870;-46.9400;-41.8000;-5.1400
1248.1860;-46.5400;-41.6500;-4.8900
1248.3850;-46.1500;-41.5000;-4.6500
1248.5840;-45.6600;-41.3300;-4.3300
1248.7830;-45.3300;-41.1800;-4.1500
1248.9820;-44.9400;-41.0200;-3.9200
1249.1810;-44.5600;-40.8700;-3.6900
1249.3810;-44.1900;-40.7200;-3.4700
1249.5800;-43.8200;-40.5600;-3.2600
1249.7790;-43.5100;-40.4200;-3.0900
1249.9780;-43.1900;-40.2500;-2.9400
1250.1770;-42.8900;-40.1100;-2.7800
1250.3760;-42.6400;-39.9700;-2.6700
1250.5750;-42.3900;-39.8100;-2.5800
1250.7740;-42.1600;-39.6700;-2.4900
1250.9740;-41.9500;-39.5200;-2.4300
1251.1730;-41.7600;-39.3800;-2.3800
1251.3720;-41.5900;-39.2300;-2.3600
1251.5710;-41.4200;-39.0900;-2.3300
1251.7700;-41.2800;-38.9500;-2.3300
1251.9690;-41.1200;-38.7900;-2.3300
1252.1680;-40.9700;-38.6400;-2.3300
1252.3670;-40.8400;-38.4700;-2.3700
1252.5660;-40.7100;-38.3200;-2.3900
1252.7660;-40.5900;-38.1700;-2.4200
1252.9650;-40.4500;-38.0100;-2.4400
1253.1640;-40.3200;-37.8500;-2.4700
1253.3630;-40.1800;-37.6800;-2.5000
1253.5620;-40.0400;-37.5200;-2.5200
1253.7610;-39.9000;-37.3500;-2.5500
1253.9600;-39.7500;-37.1900;-2.5600
1254.1590;-39.5900;-37.0300;-2.5600
1254.3580;-39.4200;-36.8500;-2.5700
1254.5580;-39.2600;-36.7000;-2.5600
1254.7570;-39.1100;-36.5400;-2.5700
1254.9560;-38.9200;-36.3700;-2.5500
1255.1550;-38.7500;-36.2300;-2.5200
1255.3540;-38.5800;-36.0600;-2.5200
1255.5530;-38.4000;-35.9200;-2.4800
1255.7520;-38.2300;-35.7400;-2.4900
1255.9510;-38.0400;-35.6300;-2.4100
1256.1500;-37.8700;-35.4900;-2.3800
1256.3500;-37.6800;-35.3400;-2.3400
1256.5490;-37.5000;-35.2200;-2.2800
1256.7480;-37.3300;-35.0700;-2.2600
1256.9470;-37.1400;-34.9400;-2.2000
1257.1460;-36.9500;-34.8000;-2.1500
1257.3450;-36.7500;-34.6600;-2.0900
1257.5440;-36.5700;-34.5400;-2.0300
1257.7430;-36.3900;-34.3900;-2.0000
1257.9430;-36.1800;-34.2500;-1.9300
1258.1420;-36.0100;-34.1200;-1.8900
1258.3410;-35.7600;-33.9700;-1.7900
1258.5400;-35.6200;-33.8400;-1.7800
1258.7390;-35.4100;-33.6800;-1.7300
1258.9380;-35.2100;-33.5400;-1.6700
1259.1370;-35.0300;-33.3900;-1.6400
1259.3360;-34.8200;-33.2400;-1.5800
1259.5350;-34.6500;-33.1000;-1.5500
1259.7350;-34.4400;-32.9400;-1.5000
1259.9340;-34.2500;-32.8000;-1.4500
1260.1330;-34.0800;-32.6500;-1.4300
1260.3320;-33.8900;-32.4900;-1.4000
1260.5310;-33.7300;-32.3600;-1.3700
1260.7300;-33.5500;-32.2000;-1.3500
1260.9290;-33.3800;-32.0700;-1.3100
1261.1280;-33.2200;-31.9200;-1.3000
1261.3270;-33.0500;-31.7700;-1.2800
1261.5270;-32.9200;-31.6500;-1.2700
1261.7260;-32.7600;-31.5100;-1.2500
1261.9250;-32.6000;-31.3800;-1.2200
1262.1240;-32.4700;-31.2400;-1.2300
1262.3230;-32.3100;-31.1100;-1.2000
1262.5220;-32.1900;-31.0000;-1.1900
1262.7210;-32.0400;-30.8600;-1.1800
1262.9200;-31.9000;-30.7400;-1.1600
1263.1200;-31.7600;-30.6000;-1.1600
1263.3190;-31.6100;-30.4700;-1.1400
1263.5180;-31.4900;-30.3600;-1.1300
1263.7170;-31.3300;-30.2100;-1.1200
1263.9160;-31.1900;-30.0900;-1.1000
1264.1150;-31.0500;-29.9500;-1.1000
1264.3140;-30.9000;-29.8100;-1.0900
1264.5130;-30.7800;-29.6900;-1.0900
1264.7120;-30.6200;-29.5500;-1.0700
1264.9120;-30.4800;-29.4200;-1.0600
1265.1110;-30.3300;-29.2700;-1.0600
1265.3100;-30.1900;-29.1400;-1.0500
1265.5090;-30.0800;-29.0100;-1.0700
1265.7080;-29.9300;-28.8700;-1.0600
1265.9070;-29.8000;-28.7500;-1.0500
1266.1060;-29.6700;-28.6100;-1.0600
1266.3050;-29.5500;-28.4800;-1.0700
1266.5040;-29.4500;-28.3700;-1.0800
1266.7040;-29.3300;-28.2400;-1.0900
1266.9030;-29.2300;-28.1200;-1.1100
1267.1020;-29.1300;-27.9900;-1.1400
1267.3010;-29.0400;-27.8700;-1.1700
1267.5000;-28.9700;-27.7700;-1.2000
1267.6990;-28.8900;-27.6500;-1.2400
1267.8980;-28.8200;-27.5500;-1.2700
1268.0970;-28.7700;-27.4300;-1.3400
1268.2970;-28.7200;-27.3200;-1.4000
1268.4960;-28.7000;-27.2200;-1.4800
1268.6950;-28.6600;-27.1000;-1.5600
1268.8940;-28.6500;-27.0000;-1.6500
1269.0930;-28.6400;-26.8800;-1.7600
1269.2920;-28.6500;-26.7700;-1.8800
1269.4910;-28.7000;-26.6600;-2.0400
1269.6900;-28.7400;-26.5400;-2.2000
1269.8890;-28.8200;-26.4400;-2.3800
1270.0890;-28.9000;-26.3100;-2.5900
1270.2880;-29.0200;-26.2000;-2.8200
1270.4870;-29.1900;-26.0700;-3.1200
1270.6860;-29.3600;-25.9700;-3.3900
1270.8850;-29.5900;-25.8500;-3.7400
1271.0840;-29.8500;-25.7300;-4.1200
1271.2830;-30.1500;-25.6300;-4.5200
1271.4820;-30.5100;-25.5000;-5.0100
1271.6810;-30.9100;-25.3900;-5.5200
1271.8810;-31.3900;-25.2800;-6.1100
1272.0800;-31.9200;-25.1700;-6.7500
1272.2790;-32.5200;-25.0600;-7.4600
1272.4780;-33.2000;-24.9500;-8.2500
1272.6770;-33.9400;-24.8500;-9.0900
1272.8760;-34.7600;-24.7400;-10.0200
1273.0750;-35.6200;-24.6500;-10.9700
1273.2740;-36.4700;-24.5600;-11.9100
1273.4740;-37.2500;-24.4500;-12.8000
1273.6730;-37.8100;-24.3700;-13.4400
1273.8720;-38.0400;-24.2700;-13.7700
1274.0710;-37.8300;-24.1800;-13.6500
1274.2700;-37.2500;-24.0900;-13.1600
1274.4690;-36.4100;-23.9900;-12.4200
1274.6680;-35.4500;-23.9100;-11.5400
1274.8670;-34.4900;-23.8100;-10.6800
1275.0660;-33.5500;-23.7200;-9.8300
1275.2660;-32.6900;-23.6400;-9.0500
1275.4650;-31.8800;-23.5400;-8.3400
1275.6640;-31.1500;-23.4600;-7.6900
1275.8630;-30.5000;-23.3600;-7.1400
1276.0620;-29.9000;-23.2700;-6.6300
1276.2610;-29.3800;-23.1800;-6.2000
1276.4600;-28.9100;-23.0900;-5.8200
1276.6590;-28.5000;-23.0000;-5.5000
1276.8580;-28.1600;-22.9000;-5.2600
1277.0580;-27.8500;-22.8200;-5.0300
1277.2570;-27.6100;-22.7300;-4.8800
1277.4560;-27.3900;-22.6400;-4.7500
1277.6550;-27.2200;-22.5700;-4.6500
1277.8540;-27.0900;-22.4700;-4.6200
1278.0530;-26.9900;-22.4000;-4.5900
1278.2520;-26.9400;-22.3100;-4.6300
1278.4510;-26.9000;-22.2300;-4.6700
1278.6500;-26.8900;-22.1600;-4.7300
1278.8500;-26.9100;-22.0700;-4.8400
1279.0490;-26.9400;-22.0000;-4.9400
1279.2480;-27.0000;-21.9200;-5.0800
1279.4470;-27.0600;-21.8400;-5.2200
1279.6460;-27.1300;-21.7700;-5.3600
1279.8450;-27.1900;-21.6800;-5.5100
1280.0440;-27.2600;-21.6200;-5.6400
1280.2430;-27.3300;-21.5400;-5.7900
1280.4430;-27.3800;-21.4600;-5.9200
1280.6420;-27.4200;-21.3900;-6.0300
1280.8410;-27.4400;-21.3100;-6.1300
1281.0400;-27.4400;-21.2400;-6.2000
1281.2390;-27.4400;-21.1600;-6.2800
1281.4380;-27.4100;-21.0800;-6.3300
1281.6370;-27.3900;-21.0100;-6.3800
1281.8360;-27.3300;-20.9300;-6.4000
1282.0350;-27.2800;-20.8700;-6.4100
1282.2350;-27.2200;-20.7800;-6.4400
1282.4340;-27.1600;-20.7100;-6.4500
1282.6330;-27.1300;-20.6500;-6.4800
1282.8320;-27.0700;-20.5800;-6.4900
1283.0310;-27.0400;-20.5200;-6.5200
1283.2300;-27.0200;-20.4500;-6.5700
1283.4290;-27.0000;-20.3900;-6.6100
1283.6280;-27.0300;-20.3200;-6.7100
1283.8270;-27.0400;-20.2600;-6.7800
1284.0270;-27.0900;-20.2100;-6.8800
1284.2260;-27.1400;-20.1400;-7.0000
1284.4250;-27.2000;-20.0900;-7.1100
1284.6240;-27.2800;-20.0300;-7.2500
1284.8230;-27.3400;-19.9700;-7.3700
1285.0220;-27.4300;-19.9300;-7.5000
1285.2210;-27.4900;-19.8600;-7.6300
1285.4200;-27.5500;-19.8100;-7.7400
1285.6200;-27.5900;-19.7500;-7.8400
1285.8190;-27.5900;-19.6900;-7.9000
1286.0180;-27.5700;-19.6500;-7.9200
1286.2170;-27.4900;-19.5800;-7.9100
1286.4160;-27.3700;-19.5400;-7.8300
1286.6150;-27.2200;-19.4900;-7.7300
1286.8140;-27.0000;-19.4300;-7.5700
1287.0130;-26.7700;-19.3900;-7.3800
1287.2120;-26.4600;-19.3300;-7.1300
1287.4120;-26.0900;-19.2900;-6.8000
1287.6110;-25.7800;-19.2300;-6.5500
1287.8100;-25.4200;-19.1800;-6.2400
1288.0090;-25.0400;-19.1400;-5.9000
1288.2080;-24.6500;-19.0800;-5.5700
1288.4070;-24.2700;-19.0500;-5.2200
1288.6060;-23.8800;-19.0000;-4.8800
1288.8050;-23.5000;-18.9600;-4.5400
1289.0040;-23.1300;-18.9200;-4.2100
1289.2040;-22.7700;-18.8700;-3.9000
1289.4030;-22.4500;-18.8500;-3.6000
1289.6020;-22.1200;-18.8000;-3.3200
1289.8010;-21.8200;-18.7600;-3.0600
1290.0000;-21.5200;-18.7200;-2.8000
1290.1990;-21.2400;-18.6800;-2.5600
1290.3980;-21.0000;-18.6600;-2.3400
1290.5970;-20.7600;-18.6200;-2.1400
1290.7970;-20.5500;-18.5900;-1.9600
1290.9960;-20.3200;-18.5300;-1.7900
1291.1950;-20.1300;-18.5000;-1.6300
1291.3940;-19.9800;-18.4700;-1.5100
1291.5930;-19.8100;-18.4100;-1.4000
1291.7920;-19.7000;-18.3900;-1.3100
1291.9910;-19.5800;-18.3400;-1.2400
1292.1900;-19.4900;-18.3100;-1.1800
1292.3890;-19.4300;-18.2700;-1.1600
1292.5890;-19.3600;-18.2200;-1.1400
1292.7880;-19.3400;-18.2000;-1.1400
1292.9870;-19.3200;-18.1500;-1.1700
1293.1860;-19.3300;-18.1300;-1.2000
1293.3850;-19.3600;-18.0900;-1.2700
1293.5840;-19.4000;-18.0500;-1.3500
1293.7830;-19.4900;-18.0200;-1.4700
1293.9820;-19.5700;-17.9900;-1.5800
1294.1810;-19.6900;-17.9700;-1.7200
1294.3810;-19.8400;-17.9300;-1.9100
1294.5800;-19.9800;-17.8900;-2.0900
1294.7790;-20.1900;-17.8700;-2.3200
1294.9780;-20.4000;-17.8400;-2.5600
1295.1770;-20.6500;-17.8200;-2.8300
1295.3760;-20.9200;-17.7900;-3.1300
1295.5750;-21.2100;-17.7600;-3.4500
1295.7740;-21.5500;-17.7300;-3.8200
1295.9740;-21.9100;-17.6900;-4.2200
1296.1730;-22.3300;-17.6800;-4.6500
1296.3720;-22.7700;-17.6500;-5.1200
1296.5710;-23.2600;-17.6300;-5.6300
1296.7700;-23.8100;-17.6000;-6.2100
1296.9690;-24.4000;-17.5800;-6.8200
1297.1680;-25.0600;-17.5700;-7.4900
1297.3670;-25.7800;-17.5500;-8.2300
1297.5660;-26.5700;-17.5300;-9.0400
1297.7660;-27.4600;-17.5100;-9.9500
1297.9650;-28.6600;-17.4900;-11.1700
1298.1640;-29.5600;-17.4800;-12.0800
1298.3630;-30.7600;-17.4700;-13.2900
1298.5620;-32.0700;-17.4600;-14.6100
1298.7610;-33.3900;-17.4400;-15.9500
1298.9600;-34.5800;-17.4400;-17.1400
1299.1590;-35.2800;-17.4300;-17.8500
1299.3580;-35.2200;-17.4200;-17.8000
1299.5580;-34.4300;-17.4200;-17.0100
1299.7570;-33.2400;-17.4100;-15.8300
1299.9560;-31.9300;-17.4100;-14.5200
1300.1550;-30.6500;-17.4000;-13.2500
1300.3540;-29.4800;-17.4000;-12.0800
1300.5530;-28.4200;-17.4000;-11.0200
1300.7520;-27.4700;-17.3900;-10.0800
1300.9510;-26.6300;-17.4000;-9.2300
1301.1500;-25.7400;-17.4000;-8.3400
1301.3500;-25.1900;-17.4000;-7.7900
1301.5490;-24.5700;-17.4100;-7.1600
1301.7480;-24.0200;-17.4100;-6.6100
1301.9470;-23.5200;-17.4200;-6.1000
1302.1460;-23.0700;-17.4200;-5.6500
1302.3450;-22.6700;-17.4300;-5.2400
1302.5440;-22.3000;-17.4300;-4.8700
1302.7430;-21.9600;-17.4300;-4.5300
1302.9430;-21.6700;-17.4400;-4.2300
1303.1420;-21.4000;-17.4400;-3.9600
1303.3410;-21.1800;-17.4600;-3.7200
1303.5400;-20.9700;-17.4600;-3.5100
1303.7390;-20.8000;-17.4600;-3.3400
1303.9380;-20.6400;-17.4700;-3.1700
1304.1370;-20.5300;-17.4800;-3.0500
1304.3360;-20.4400;-17.5000;-2.9400
1304.5350;-20.3600;-17.5000;-2.8600
1304.7350;-20.3200;-17.5100;-2.8100
1304.9340;-20.3000;-17.5200;-2.7800
1305.1330;-20.3000;-17.5300;-2.7700
1305.3320;-20.3400;-17.5500;-2.7900
1305.5310;-20.3900;-17.5600;-2.8300
1305.7300;-20.4700;-17.5800;-2.8900
1305.9290;-20.5700;-17.5800;-2.9900
1306.1280;-20.7000;-17.6000;-3.1000
1306.3270;-20.8500;-17.6100;-3.2400
1306.5270;-21.0300;-17.6300;-3.4000
1306.7260;-21.2500;-17.6500;-3.6000
1306.9250;-21.4700;-17.6500;-3.8200
1307.1240;-21.7400;-17.6800;-4.0600
1307.3230;-22.0300;-17.6900;-4.3400
1307.5220;-22.3600;-17.7100;-4.6500
1307.7210;-22.7300;-17.7400;-4.9900
1307.9200;-23.1200;-17.7500;-5.3700
1308.1200;-23.5700;-17.7900;-5.7800
1308.3190;-24.0500;-17.8000;-6.2500
1308.5180;-24.5900;-17.8400;-6.7500
1308.7170;-25.1900;-17.8800;-7.3100
1308.9160;-25.8200;-17.8900;-7.9300
1309.1150;-26.5400;-17.9400;-8.6000
1309.3140;-27.3200;-17.9600;-9.3600
1309.5130;-28.1800;-18.0100;-10.1700
1309.7120;-29.3200;-18.0500;-11.2700
1309.9120;-30.1700;-18.0700;-12.1000
