Wavelength;Intensity_Meas;Intensity_Ref;Difference_dB
1200.0000;-61.5300;-57.3300;-4.2000
1200.1990;-61.4200;-57.3100;-4.1100
1200.3980;-61.3900;-57.2900;-4.1000
1200.5970;-61.3400;-57.2600;-4.0800
1200.7970;-61.3000;-57.2100;-4.0900
1200.9960;-61.2000;-57.2000;-4.0000
1201.1950;-61.1600;-57.1800;-3.9800
1201.3940;-61.1000;-57.1100;-3.9900
1201.5930;-61.0900;-57.0700;-4.0200
1201.7920;-61.0000;-57.0200;-3.9800
1201.9910;-60.9600;-56.9800;-3.9800
1202.1900;-60.9100;-56.9500;-3.9600
1202.3890;-60.8800;-56.8700;-4.0100
1202.5890;-60.8700;-56.8000;-4.0700
1202.7880;-60.8000;-56.7800;-4.0200
1202.9870;-60.7400;-56.7300;-4.0100
1203.1860;-60.7300;-56.6800;-4.0500
1203.3850;-60.7000;-56.6000;-4.1000
1203.5840;-60.6800;-56.5700;-4.1100
1203.7830;-60.6600;-56.5400;-4.1200
1203.9820;-60.6800;-56.4900;-4.1900
1204.1810;-60.6800;-56.4500;-4.2300
1204.3810;-60.6700;-56.3900;-4.2800
1204.5800;-60.6900;-56.3900;-4.3000
1204.7790;-60.7200;-56.3700;-4.3500
1204.9780;-60.7300;-56.3100;-4.4200
1205.1770;-60.7700;-56.2800;-4.4900
1205.3760;-60.7700;-56.2700;-4.5000
1205.5750;-60.8200;-56.2500;-4.5700
1205.7740;-60.8600;-56.2300;-4.6300
1205.9740;-60.8500;-56.2100;-4.6400
1206.1730;-60.8300;-56.2000;-4.6300
1206.3720;-60.8000;-56.1800;-4.6200
1206.5710;-60.8100;-56.1600;-4.6500
1206.7700;-60.7900;-56.1400;-4.6500
1206.9690;-60.7000;-56.1000;-4.6000
1207.1680;-60.6700;-56.1000;-4.5700
1207.3670;-60.5800;-56.0800;-4.5000
1207.5660;-60.5400;-56.0200;-4.5200
1207.7660;-60.4600;-56.0100;-4.4500
1207.9650;-60.3700;-55.9800;-4.3900
1208.1640;-60.3100;-55.9400;-4.3700
1208.3630;-60.2400;-55.8900;-4.3500
1208.5620;-60.1600;-55.8600;-4.3000
1208.7610;-60.0500;-55.8300;-4.2200
1208.9600;-60.0000;-55.7800;-4.2200
1209.1590;-59.9500;-55.7300;-4.2200
1209.3580;-59.8800;-55.6600;-4.2200
1209.5580;-59.8000;-55.6200;-4.1800
1209.7570;-59.7300;-55.6000;-4.1300
1209.9560;-59.7100;-55.5300;-4.1800
1210.1550;-59.6500;-55.4600;-4.1900
1210.3540;-59.5600;-55.4200;-4.1400
1210.5530;-59.4900;-55.3900;-4.1000
1210.7520;-59.4800;-55.3400;-4.1400
1210.9510;-59.4400;-55.2800;-4.1600
1211.1500;-59.3900;-55.2400;-4.1500
1211.3500;-59.3100;-55.2000;-4.1100
1211.5490;-59.3000;-55.1800;-4.1200
1211.7480;-59.3100;-55.1500;-4.1600
1211.9470;-59.2600;-55.0800;-4.1800
1212.1460;-59.2000;-55.0700;-4.1300
1212.3450;-59.2100;-55.0500;-4.1600
1212.5440;-59.2200;-55.0100;-4.2100
1212.7430;-59.2100;-54.9800;-4.2300
1212.9430;-59.1600;-54.9500;-4.2100
1213.1420;-59.1700;-54.9200;-4.2500
1213.3410;-59.1800;-54.8900;-4.2900
1213.5400;-59.1800;-54.8700;-4.3100
1213.7390;-59.1600;-54.8500;-4.3100
1213.9380;-59.1600;-54.8000;-4.3600
1214.1370;-59.1800;-54.7900;-4.3900
1214.3360;-59.1700;-54.7300;-4.4400
1214.5350;-59.1300;-54.7000;-4.4300
1214.7350;-59.1200;-54.6800;-4.4400
1214.9340;-59.1300;-54.6300;-4.5000
1215.1330;-59.1200;-54.5800;-4.5400
1215.3320;-59.0700;-54.5300;-4.5400
1215.5310;-59.0300;-54.4900;-4.5400
1215.7300;-59.0200;-54.4500;-4.5700
1215.9290;-59.0000;-54.3900;-4.6100
1216.1280;-58.9700;-54.3300;-4.6400
1216.3270;-58.9100;-54.2600;-4.6500
1216.5270;-58.8900;-54.2300;-4.6600
1216.7260;-58.8900;-54.1800;-4.7100
1216.9250;-58.8300;-54.1000;-4.7300
1217.1240;-58.7700;-54.0500;-4.7200
1217.3230;-58.7200;-53.9900;-4.7300
1217.5220;-58.7300;-53.9400;-4.7900
1217.7210;-58.7000;-53.9000;-4.8000
1217.9200;-58.6100;-53.8400;-4.7700
1218.1200;-58.6200;-53.8000;-4.8200
1218.3190;-58.6300;-53.7500;-4.8800
1218.5180;-58.5900;-53.7100;-4.8800
1218.7170;-58.5300;-53.6600;-4.8700
1218.9160;-58.4900;-53.6300;-4.8600
1219.1150;-58.5100;-53.6100;-4.9000
1219.3140;-58.4800;-53.5500;-4.9300
1219.5130;-58.4300;-53.5300;-4.9000
1219.7120;-58.4100;-53.5100;-4.9000
1219.9120;-58.4000;-53.4600;-4.9400
1220.1110;-58.3900;-53.4300;-4.9600
1220.3100;-58.3200;-53.3900;-4.9300
1220.5090;-58.2600;-53.3500;-4.9100
1220.7080;-58.2500;-53.3300;-4.9200
1220.9070;-58.2100;-53.2800;-4.9300
1221.1060;-58.1400;-53.2200;-4.9200
1221.3050;-58.0500;-53.1900;-4.8600
1221.5040;-58.0000;-53.1400;-4.8600
1221.7040;-57.9600;-53.0800;-4.8800
1221.9030;-57.8700;-53.0300;-4.8400
1222.1020;-57.7800;-52.9700;-4.8100
1222.3010;-57.7300;-52.9100;-4.8200
1222.5000;-57.6700;-52.8400;-4.8300
1222.6990;-57.5800;-52.7900;-4.7900
1222.8980;-57.4900;-52.7100;-4.7800
1223.0970;-57.4400;-52.6500;-4.7900
1223.2970;-57.3900;-52.5800;-4.8100
1223.4960;-57.3000;-52.5000;-4.8000
1223.6950;-57.2200;-52.4500;-4.7700
1223.8940;-57.1700;-52.3800;-4.7900
1224.0930;-57.1100;-52.3100;-4.8000
1224.2920;-57.0300;-52.2400;-4.7900
1224.4910;-56.9300;-52.1800;-4.7500
1224.6900;-56.8800;-52.1300;-4.7500
1224.8890;-56.8000;-52.0500;-4.7500
1225.0890;-56.7100;-52.0100;-4.7000
1225.2880;-56.5800;-51.9300;-4.6500
1225.4870;-56.4600;-51.8700;-4.5900
1225.6860;-56.3700;-51.8400;-4.5300
1225.8850;-56.2300;-51.7800;-4.4500
1226.0840;-56.0800;-51.7300;-4.3500
1226.2830;-55.9400;-51.6800;-4.2600
1226.4820;-55.8200;-51.6200;-4.2000
1226.6810;-55.6200;-51.5900;-4.0300
1226.8810;-55.5000;-51.5400;-3.9600
1227.0800;-55.3800;-51.4800;-3.9000
1227.2790;-55.2600;-51.4400;-3.8200
1227.4780;-55.1300;-51.3800;-3.7500
1227.6770;-55.0100;-51.3400;-3.6700
1227.8760;-54.9300;-51.2700;-3.6600
1228.0750;-54.8600;-51.2200;-3.6400
1228.2740;-54.7700;-51.1500;-3.6200
1228.4740;-54.7100;-51.0800;-3.6300
1228.6730;-54.6600;-51.0300;-3.6300
1228.8720;-54.6400;-50.9500;-3.6900
1229.0710;-54.6200;-50.8900;-3.7300
1229.2700;-54.5900;-50.8100;-3.7800
1229.4690;-54.6100;-50.7200;-3.8900
1229.6680;-54.6100;-50.6700;-3.9400
1229.8670;-54.6100;-50.5700;-4.0400
1230.0660;-54.6400;-50.4900;-4.1500
1230.2660;-54.6800;-50.4100;-4.2700
1230.4650;-54.7200;-50.3300;-4.3900
1230.6640;-54.7600;-50.2600;-4.5000
1230.8630;-54.8300;-50.1800;-4.6500
1231.0620;-54.9100;-50.1100;-4.8000
1231.2610;-54.9700;-50.0500;-4.9200
1231.4600;-55.0100;-49.9800;-5.0300
1231.6590;-55.0300;-49.9300;-5.1000
1231.8580;-55.0400;-49.8500;-5.1900
1232.0580;-55.0400;-49.8100;-5.2300
1232.2570;-54.9500;-49.7400;-5.2100
1232.4560;-54.8700;-49.6800;-5.1900
1232.6550;-54.7400;-49.6400;-5.1000
1232.8540;-54.5700;-49.5700;-5.0000
1233.0530;-54.3800;-49.5300;-4.8500
1233.2520;-54.1500;-49.4600;-4.6900
1233.4510;-53.9500;-49.4100;-4.5400
1233.6500;-53.7100;-49.3700;-4.3400
1233.8500;-53.4700;-49.3000;-4.1700
1234.0490;-53.2700;-49.2500;-4.0200
1234.2480;-53.0800;-49.1800;-3.9000
1234.4470;-52.9100;-49.1200;-3.7900
1234.6460;-52.7300;-49.0600;-3.6700
1234.8450;-52.5900;-48.9900;-3.6000
1235.0440;-52.4900;-48.9300;-3.5600
1235.2430;-52.3900;-48.8400;-3.5500
1235.4430;-52.3100;-48.7600;-3.5500
1235.6420;-52.2500;-48.6900;-3.5600
1235.8410;-52.2200;-48.6000;-3.6200
1236.0400;-52.1900;-48.5300;-3.6600
1236.2390;-52.1600;-48.4200;-3.7400
1236.4380;-52.1700;-48.3300;-3.8400
1236.6370;-52.1700;-48.2500;-3.9200
1236.8360;-52.1600;-48.1500;-4.0100
1237.0350;-52.1700;-48.0800;-4.0900
1237.2350;-52.1800;-47.9900;-4.1900
1237.4340;-52.2000;-47.9000;-4.3000
1237.6330;-52.1900;-47.8100;-4.3800
1237.8320;-52.1900;-47.7400;-4.4500
1238.0310;-52.1900;-47.6600;-4.5300
1238.2300;-52.1600;-47.5700;-4.5900
1238.4290;-52.1200;-47.5000;-4.6200
1238.6280;-52.0600;-47.4200;-4.6400
1238.8270;-52.0000;-47.3400;-4.6600
1239.0270;-51.9200;-47.2700;-4.6500
1239.2260;-51.8000;-47.1800;-4.6200
1239.4250;-51.7000;-47.1100;-4.5900
1239.6240;-51.5900;-47.0300;-4.5600
1239.8230;-51.4500;-46.9400;-4.5100
1240.0220;-51.3100;-46.8700;-4.4400
1240.2210;-51.1800;-46.7700;-4.4100
1240.4200;-51.0700;-46.6900;-4.3800
1240.6200;-50.9400;-46.5900;-4.3500
1240.8190;-50.8300;-46.4900;-4.3400
1241.0180;-50.7300;-46.3800;-4.3500
1241.2170;-50.6400;-46.2700;-4.3700
1241.4160;-50.5600;-46.1700;-4.3900
1241.6150;-50.4700;-46.0300;-4.4400
1241.8140;-50.4200;-45.9100;-4.5100
1242.0130;-50.3600;-45.8000;-4.5600
1242.2120;-50.3000;-45.6900;-4.6100
1242.4120;-50.2600;-45.5600;-4.7000
1242.6110;-50.2000;-45.4200;-4.7800
1242.8100;-50.1500;-45.3100;-4.8400
1243.0090;-50.0800;-45.1700;-4.9100
1243.2080;-50.0200;-45.0500;-4.9700
1243.4070;-49.9800;-44.9200;-5.0600
1243.6060;-49.8900;-44.7900;-5.1000
1243.8050;-49.8400;-44.6800;-5.1600
1244.0040;-49.7800;-44.5400;-5.2400
1244.2040;-49.7200;-44.4100;-5.3100
1244.4030;-49.6700;-44.2900;-5.3800
1244.6020;-49.6100;-44.1600;-5.4500
1244.8010;-49.5900;-44.0500;-5.5400
1245.0000;-49.5400;-43.9100;-5.6300
1245.1990;-49.5100;-43.7900;-5.7200
1245.3980;-49.5000;-43.6700;-5.8300
1245.5970;-49.4700;-43.5300;-5.9400
1245.7970;-49.4300;-43.4100;-6.0200
1245.9960;-49.3800;-43.2600;-6.1200
1246.1950;-49.3300;-43.1400;-6.1900
1246.3940;-49.2600;-43.0000;-6.2600
1246.5930;-49.1300;-42.8500;-6.2800
1246.7920;-48.9900;-42.7300;-6.2600
1246.9910;-48.7800;-42.5600;-6.2200
1247.1900;-48.5400;-42.4200;-6.1200
1247.3890;-48.2600;-42.2700;-5.9900
1247.5890;-47.9200;-42.1100;-5.8100
1247.7880;-47.5700;-41.9700;-5.6000
1247.9870;-47.1400;-41.8000;-5.3400
1248.1860;-46.7200;-41.6500;-5.0700
1248.3850;-46.3000;-41.5000;-4.8000
1248.5840;-45.8400;-41.3300;-4.5100
1248.7830;-45.3500;-41.1800;-4.1700
1248.9820;-44.9900;-41.0200;-3.9700
1249.1810;-44.6000;-40.8700;-3.7300
1249.3810;-44.2000;-40.7200;-3.4800
1249.5800;-43.8200;-40.5600;-3.2600
1249.7790;-43.5000;-40.4200;-3.0800
1249.9780;-43.1700;-40.2500;-2.9200
1250.1770;-42.8800;-40.1100;-2.7700
1250.3760;-42.6200;-39.9700;-2.6500
1250.5750;-42.3700;-39.8100;-2.5600
1250.7740;-42.1500;-39.6700;-2.4800
1250.9740;-41.9500;-39.5200;-2.4300
1251.1730;-41.7700;-39.3800;-2.3900
1251.3720;-41.5900;-39.2300;-2.3600
1251.5710;-41.4400;-39.0900;-2.3500
1251.7700;-41.3000;-38.9500;-2.3500
1251.9690;-41.1600;-38.7900;-2.3700
1252.1680;-41.0300;-38.6400;-2.3900
1252.3670;-40.8800;-38.4700;-2.4100
1252.5660;-40.7600;-38.3200;-2.4400
1252.7660;-40.6300;-38.1700;-2.4600
1252.9650;-40.4900;-38.0100;-2.4800
1253.1640;-40.3600;-37.8500;-2.5100
1253.3630;-40.2100;-37.6800;-2.5300
1253.5620;-40.0500;-37.5200;-2.5300
1253.7610;-39.8900;-37.3500;-2.5400
1253.9600;-39.7300;-37.1900;-2.5400
1254.1590;-39.5600;-37.0300;-2.5300
1254.3580;-39.3700;-36.8500;-2.5200
1254.5580;-39.1900;-36.7000;-2.4900
1254.7570;-39.0000;-36.5400;-2.4600
1254.9560;-38.8000;-36.3700;-2.4300
1255.1550;-38.6200;-36.2300;-2.3900
1255.3540;-38.4200;-36.0600;-2.3600
1255.5530;-38.2200;-35.9200;-2.3000
1255.7520;-38.0200;-35.7400;-2.2800
1255.9510;-37.8200;-35.6300;-2.1900
1256.1500;-37.6500;-35.4900;-2.1600
1256.3500;-37.4400;-35.3400;-2.1000
1256.5490;-37.2600;-35.2200;-2.0400
1256.7480;-37.0600;-35.0700;-1.9900
1256.9470;-36.8700;-34.9400;-1.9300
1257.1460;-36.6800;-34.8000;-1.8800
1257.3450;-36.4800;-34.6600;-1.8200
1257.5440;-36.3000;-34.5400;-1.7600
1257.7430;-36.1000;-34.3900;-1.7100
1257.9430;-35.8700;-34.2500;-1.6200
1258.1420;-35.7300;-34.1200;-1.6100
1258.3410;-35.5300;-33.9700;-1.5600
1258.5400;-35.3600;-33.8400;-1.5200
1258.7390;-35.1600;-33.6800;-1.4800
1258.9380;-34.9600;-33.5400;-1.4200
1259.1370;-34.7900;-33.3900;-1.4000
1259.3360;-34.6000;-33.2400;-1.3600
1259.5350;-34.4300;-33.1000;-1.3300
1259.7350;-34.2400;-32.9400;-1.3000
1259.9340;-34.0600;-32.8000;-1.2600
1260.1330;-33.8900;-32.6500;-1.2400
1260.3320;-33.7200;-32.4900;-1.2300
1260.5310;-33.5700;-32.3600;-1.2100
1260.7300;-33.3900;-32.2000;-1.1900
1260.9290;-33.2300;-32.0700;-1.1600
1261.1280;-33.0800;-31.9200;-1.1600
1261.3270;-32.9200;-31.7700;-1.1500
1261.5270;-32.7900;-31.6500;-1.1400
1261.7260;-32.6300;-31.5100;-1.1200
1261.9250;-32.4800;-31.3800;-1.1000
1262.1240;-32.3400;-31.2400;-1.1000
1262.3230;-32.1900;-31.1100;-1.0800
1262.5220;-32.0700;-31.0000;-1.0700
1262.7210;-31.9200;-30.8600;-1.0600
1262.9200;-31.7800;-30.7400;-1.0400
1263.1200;-31.6400;-30.6000;-1.0400
1263.3190;-31.4900;-30.4700;-1.0200
1263.5180;-31.3700;-30.3600;-1.0100
1263.7170;-31.2100;-30.2100;-1.0000
1263.9160;-31.0700;-30.0900;-0.9800
1264.1150;-30.9200;-29.9500;-0.9700
1264.3140;-30.7700;-29.8100;-0.9600
1264.5130;-30.6500;-29.6900;-0.9600
1264.7120;-30.4900;-29.5500;-0.9400
1264.9120;-30.3500;-29.4200;-0.9300
1265.1110;-30.2100;-29.2700;-0.9400
1265.3100;-30.0600;-29.1400;-0.9200
1265.5090;-29.9500;-29.0100;-0.9400
1265.7080;-29.8000;-28.8700;-0.9300
1265.9070;-29.6800;-28.7500;-0.9300
1266.1060;-29.5500;-28.6100;-0.9400
1266.3050;-29.4200;-28.4800;-0.9400
1266.5040;-29.3300;-28.3700;-0.9600
1266.7040;-29.2100;-28.2400;-0.9700
1266.9030;-29.1000;-28.1200;-0.9800
1267.1020;-29.0000;-27.9900;-1.0100
1267.3010;-28.8900;-27.8700;-1.0200
1267.5000;-28.8300;-27.7700;-1.0600
1267.6990;-28.7300;-27.6500;-1.0800
1267.8980;-28.6600;-27.5500;-1.1100
1268.0970;-28.5900;-27.4300;-1.1600
1268.2970;-28.5200;-27.3200;-1.2000
1268.4960;-28.4900;-27.2200;-1.2700
1268.6950;-28.4300;-27.1000;-1.3300
1268.8940;-28.4000;-27.0000;-1.4000
1269.0930;-28.3700;-26.8800;-1.4900
1269.2920;-28.3600;-26.7700;-1.5900
1269.4910;-28.3900;-26.6600;-1.7300
1269.6900;-28.4000;-26.5400;-1.8600
1269.8890;-28.4500;-26.4400;-2.0100
1270.0890;-28.5200;-26.3100;-2.2100
1270.2880;-28.6100;-26.2000;-2.4100
1270.4870;-28.7500;-26.0700;-2.6800
1270.6860;-28.8900;-25.9700;-2.9200
1270.8850;-29.1000;-25.8500;-3.2500
1271.0840;-29.3200;-25.7300;-3.5900
1271.2830;-29.6000;-25.6300;-3.9700
1271.4820;-29.9400;-25.5000;-4.4400
1271.6810;-30.3200;-25.3900;-4.9300
1271.8810;-30.7800;-25.2800;-5.5000
1272.0800;-31.2800;-25.1700;-6.1100
1272.2790;-31.8800;-25.0600;-6.8200
1272.4780;-32.5600;-24.9500;-7.6100
1272.6770;-33.3200;-24.8500;-8.4700
1272.8760;-34.1900;-24.7400;-9.4500
1273.0750;-35.1400;-24.6500;-10.4900
1273.2740;-36.1500;-24.5600;-11.5900
1273.4740;-37.1600;-24.4500;-12.7100
1273.6730;-38.0300;-24.3700;-13.6600
1273.8720;-38.6500;-24.2700;-14.3800
1274.0710;-38.5400;-24.1800;-14.3600
1274.2700;-37.9600;-24.0900;-13.8700
1274.4690;-36.9700;-23.9900;-12.9800
1274.6680;-35.6400;-23.9100;-11.7300
1274.8670;-34.6300;-23.8100;-10.8200
1275.0660;-33.5200;-23.7200;-9.8000
1275.2660;-32.4900;-23.6400;-8.8500
1275.4650;-31.5500;-23.5400;-8.0100
1275.6640;-30.7200;-23.4600;-7.2600
1275.8630;-29.9700;-23.3600;-6.6100
1276.0620;-29.3100;-23.2700;-6.0400
1276.2610;-28.7100;-23.1800;-5.5300
1276.4600;-28.1900;-23.0900;-5.1000
1276.6590;-27.7300;-23.0000;-4.7300
1276.8580;-27.3400;-22.9000;-4.4400
1277.0580;-27.0200;-22.8200;-4.2000
1277.2570;-26.7200;-22.7300;-3.9900
1277.4560;-26.4900;-22.6400;-3.8500
1277.6550;-26.3100;-22.5700;-3.7400
1277.8540;-26.1700;-22.4700;-3.7000
1278.0530;-26.0500;-22.4000;-3.6500
1278.2520;-26.0000;-22.3100;-3.6900
1278.4510;-25.9900;-22.2300;-3.7600
1278.6500;-25.9900;-22.1600;-3.8300
1278.8500;-26.0300;-22.0700;-3.9600
1279.0490;-26.0900;-22.0000;-4.0900
1279.2480;-26.1800;-21.9200;-4.2600
1279.4470;-26.3000;-21.8400;-4.4600
1279.6460;-26.4200;-21.7700;-4.6500
1279.8450;-26.5700;-21.6800;-4.8900
1280.0440;-26.7200;-21.6200;-5.1000
1280.2430;-26.8800;-21.5400;-5.3400
1280.4430;-27.0600;-21.4600;-5.6000
1280.6420;-27.2100;-21.3900;-5.8200
1280.8410;-27.3700;-21.3100;-6.0600
1281.0400;-27.5200;-21.2400;-6.2800
1281.2390;-27.6500;-21.1600;-6.4900
1281.4380;-27.7900;-21.0800;-6.7100
1281.6370;-27.9000;-21.0100;-6.8900
1281.8360;-28.0000;-20.9300;-7.0700
1282.0350;-28.0800;-20.8700;-7.2100
1282.2350;-28.1700;-20.7800;-7.3900
1282.4340;-28.2800;-20.7100;-7.5700
1282.6330;-28.3600;-20.6500;-7.7100
1282.8320;-28.4700;-20.5800;-7.8900
1283.0310;-28.5600;-20.5200;-8.0400
1283.2300;-28.6800;-20.4500;-8.2300
1283.4290;-28.8100;-20.3900;-8.4200
1283.6280;-28.9600;-20.3200;-8.6400
1283.8270;-29.1400;-20.2600;-8.8800
1284.0270;-29.3200;-20.2100;-9.1100
1284.2260;-29.5300;-20.1400;-9.3900
1284.4250;-29.7500;-20.0900;-9.6600
1284.6240;-29.9800;-20.0300;-9.9500
1284.8230;-30.2300;-19.9700;-10.2600
1285.0220;-30.4400;-19.9300;-10.5100
1285.2210;-30.6400;-19.8600;-10.7800
1285.4200;-30.7800;-19.8100;-10.9700
1285.6200;-30.8600;-19.7500;-11.1100
1285.8190;-30.8600;-19.6900;-11.1700
1286.0180;-30.7400;-19.6500;-11.0900
1286.2170;-30.5400;-19.5800;-10.9600
1286.4160;-30.2200;-19.5400;-10.6800
1286.6150;-29.8400;-19.4900;-10.3500
1286.8140;-29.3800;-19.4300;-9.9500
1287.0130;-28.8500;-19.3900;-9.4600
1287.2120;-28.3100;-19.3300;-8.9800
1287.4120;-27.7400;-19.2900;-8.4500
1287.6110;-27.1700;-19.2300;-7.9400
1287.8100;-26.6200;-19.1800;-7.4400
1288.0090;-25.9700;-19.1400;-6.8300
1288.2080;-25.5400;-19.0800;-6.4600
1288.4070;-25.0300;-19.0500;-5.9800
1288.6060;-24.5700;-19.0000;-5.5700
1288.8050;-24.1000;-18.9600;-5.1400
1289.0040;-23.6700;-18.9200;-4.7500
1289.2040;-23.2700;-18.8700;-4.4000
1289.4030;-22.8800;-18.8500;-4.0300
1289.6020;-22.5200;-18.8000;-3.7200
1289.8010;-22.1800;-18.7600;-3.4200
1290.0000;-21.8600;-18.7200;-3.1400
1290.1990;-21.5700;-18.6800;-2.8900
1290.3980;-21.2900;-18.6600;-2.6300
1290.5970;-21.0500;-18.6200;-2.4300
1290.7970;-20.8000;-18.5900;-2.2100
1290.9960;-20.5700;-18.5300;-2.0400
1291.1950;-20.3700;-18.5000;-1.8700
1291.3940;-20.1800;-18.4700;-1.7100
1291.5930;-20.0200;-18.4100;-1.6100
1291.7920;-19.8600;-18.3900;-1.4700
1291.9910;-19.7300;-18.3400;-1.3900
1292.1900;-19.6300;-18.3100;-1.3200
1292.3890;-19.5300;-18.2700;-1.2600
1292.5890;-19.4700;-18.2200;-1.2500
1292.7880;-19.4000;-18.2000;-1.2000
1292.9870;-19.3700;-18.1500;-1.2200
1293.1860;-19.3500;-18.1300;-1.2200
1293.3850;-19.3500;-18.0900;-1.2600
1293.5840;-19.3800;-18.0500;-1.3300
1293.7830;-19.4100;-18.0200;-1.3900
1293.9820;-19.4900;-17.9900;-1.5000
1294.1810;-19.5600;-17.9700;-1.5900
1294.3810;-19.6700;-17.9300;-1.7400
1294.5800;-19.8000;-17.8900;-1.9100
1294.7790;-19.9400;-17.8700;-2.0700
1294.9780;-20.1300;-17.8400;-2.2900
1295.1770;-20.3200;-17.8200;-2.5000
1295.3760;-20.5500;-17.7900;-2.7600
1295.5750;-20.8000;-17.7600;-3.0400
1295.7740;-21.0800;-17.7300;-3.3500
1295.9740;-21.3900;-17.6900;-3.7000
1296.1730;-21.7400;-17.6800;-4.0600
1296.3720;-22.1200;-17.6500;-4.4700
1296.5710;-22.5300;-17.6300;-4.9000
1296.7700;-22.9900;-17.6000;-5.3900
1296.9690;-23.5000;-17.5800;-5.9200
1297.1680;-24.0500;-17.5700;-6.4800
1297.3670;-24.6600;-17.5500;-7.1100
1297.5660;-25.3100;-17.5300;-7.7800
1297.7660;-26.0500;-17.5100;-8.5400
1297.9650;-26.8600;-17.4900;-9.3700
1298.1640;-27.7500;-17.4800;-10.2700
1298.3630;-28.9600;-17.4700;-11.4900
1298.5620;-29.8300;-17.4600;-12.3700
1298.7610;-31.0000;-17.4400;-13.5600
1298.9600;-32.1900;-17.4400;-14.7500
1299.1590;-33.3100;-17.4300;-15.8800
1299.3580;-34.1700;-17.4200;-16.7500
1299.5580;-34.4600;-17.4200;-17.0400
1299.7570;-34.1300;-17.4100;-16.7200
1299.9560;-33.2600;-17.4100;-15.8500
1300.1550;-32.1500;-17.4000;-14.7500
1300.3540;-30.9700;-17.4000;-13.5700
1300.5530;-29.8200;-17.4000;-12.4200
1300.7520;-28.7800;-17.3900;-11.3900
1300.9510;-27.8100;-17.4000;-10.4100
1301.1500;-26.9500;-17.4000;-9.5500
1301.3500;-26.1600;-17.4000;-8.7600
1301.5490;-25.3500;-17.4100;-7.9400
1301.7480;-24.8200;-17.4100;-7.4100
1301.9470;-24.2400;-17.4200;-6.8200
1302.1460;-23.7400;-17.4200;-6.3200
1302.3450;-23.2600;-17.4300;-5.8300
1302.5440;-22.8500;-17.4300;-5.4200
1302.7430;-22.4500;-17.4300;-5.0200
1302.9430;-22.1000;-17.4400;-4.6600
1303.1420;-21.8000;-17.4400;-4.3600
1303.3410;-21.5200;-17.4600;-4.0600
1303.5400;-21.2900;-17.4600;-3.8300
1303.7390;-21.0600;-17.4600;-3.6000
1303.9380;-20.8700;-17.4700;-3.4000
1304.1370;-20.7300;-17.4800;-3.2500
1304.3360;-20.5900;-17.5000;-3.0900
1304.5350;-20.5100;-17.5000;-3.0100
1304.7350;-20.4100;-17.5100;-2.9000
1304.9340;-20.3600;-17.5200;-2.8400
1305.1330;-20.3300;-17.5300;-2.8000
1305.3320;-20.3200;-17.5500;-2.7700
1305.5310;-20.3600;-17.5600;-2.8000
1305.7300;-20.4000;-17.5800;-2.8200
1305.9290;-20.4700;-17.5800;-2.8900
1306.1280;-20.5600;-17.6000;-2.9600
1306.3270;-20.6700;-17.6100;-3.0600
1306.5270;-20.8300;-17.6300;-3.2000
1306.7260;-20.9900;-17.6500;-3.3400
1306.9250;-21.1900;-17.6500;-3.5400
1307.1240;-21.4200;-17.6800;-3.7400
1307.3230;-21.6700;-17.6900;-3.9800
1307.5220;-21.9700;-17.7100;-4.2600
1307.7210;-22.2700;-17.7400;-4.5300
1307.9200;-22.6300;-17.7500;-4.8800
1308.1200;-23.0100;-17.7900;-5.2200
1308.3190;-23.4300;-17.8000;-5.6300
1308.5180;-23.9100;-17.8400;-6.0700
1308.7170;-24.4200;-17.8800;-6.5400
1308.9160;-24.9900;-17.8900;-7.1000
1309.1150;-25.5900;-17.9400;-7.6500
1309.3140;-26.2500;-17.9600;-8.2900
1309.5130;-26.9800;-18.0100;-8.9700
1309.7120;-27.7400;-18.0500;-9.6900
1309.9120;-28.7600;-18.0700;-10.6900
