Wavelength;Intensity_Meas;Intensity_Ref;Difference_dB
1200.0000;-61.4000;-57.3300;-4.0700
1200.1990;-61.3200;-57.3100;-4.0100
1200.3980;-61.2900;-57.2900;-4.0000
1200.5970;-61.2800;-57.2600;-4.0200
1200.7970;-61.2500;-57.2100;-4.0400
1200.9960;-61.2100;-57.2000;-4.0100
1201.1950;-61.1500;-57.1800;-3.9700
1201.3940;-61.1600;-57.1100;-4.0500
1201.5930;-61.1700;-57.0700;-4.1000
1201.7920;-61.1300;-57.0200;-4.1100
1201.9910;-61.1000;-56.9800;-4.1200
1202.1900;-61.0700;-56.9500;-4.1200
1202.3890;-61.1100;-56.8700;-4.2400
1202.5890;-61.0900;-56.8000;-4.2900
1202.7880;-61.0500;-56.7800;-4.2700
1202.9870;-61.0300;-56.7300;-4.3000
1203.1860;-61.0400;-56.6800;-4.3600
1203.3850;-61.0300;-56.6000;-4.4300
1203.5840;-61.0100;-56.5700;-4.4400
1203.7830;-60.9600;-56.5400;-4.4200
1203.9820;-60.9700;-56.4900;-4.4800
1204.1810;-60.9600;-56.4500;-4.5100
1204.3810;-60.9000;-56.3900;-4.5100
1204.5800;-60.9100;-56.3900;-4.5200
1204.7790;-60.8600;-56.3700;-4.4900
1204.9780;-60.8700;-56.3100;-4.5600
1205.1770;-60.8600;-56.2800;-4.5800
1205.3760;-60.7900;-56.2700;-4.5200
1205.5750;-60.7500;-56.2500;-4.5000
1205.7740;-60.7400;-56.2300;-4.5100
1205.9740;-60.7300;-56.2100;-4.5200
1206.1730;-60.6500;-56.2000;-4.4500
1206.3720;-60.6300;-56.1800;-4.4500
1206.5710;-60.6000;-56.1600;-4.4400
1206.7700;-60.5400;-56.1400;-4.4000
1206.9690;-60.4800;-56.1000;-4.3800
1207.1680;-60.3900;-56.1000;-4.2900
1207.3670;-60.3300;-56.0800;-4.2500
1207.5660;-60.3000;-56.0200;-4.2800
1207.7660;-60.1900;-56.0100;-4.1800
1207.9650;-60.1100;-55.9800;-4.1300
1208.1640;-60.0500;-55.9400;-4.1100
1208.3630;-60.0000;-55.8900;-4.1100
1208.5620;-59.9300;-55.8600;-4.0700
1208.7610;-59.8300;-55.8300;-4.0000
1208.9600;-59.7700;-55.7800;-3.9900
1209.1590;-59.7600;-55.7300;-4.0300
1209.3580;-59.7100;-55.6600;-4.0500
1209.5580;-59.6300;-55.6200;-4.0100
1209.7570;-59.5700;-55.6000;-3.9700
1209.9560;-59.5600;-55.5300;-4.0300
1210.1550;-59.5200;-55.4600;-4.0600
1210.3540;-59.4300;-55.4200;-4.0100
1210.5530;-59.3900;-55.3900;-4.0000
1210.7520;-59.3900;-55.3400;-4.0500
1210.9510;-59.3800;-55.2800;-4.1000
1211.1500;-59.3000;-55.2400;-4.0600
1211.3500;-59.2700;-55.2000;-4.0700
1211.5490;-59.2600;-55.1800;-4.0800
1211.7480;-59.2600;-55.1500;-4.1100
1211.9470;-59.2200;-55.0800;-4.1400
1212.1460;-59.1500;-55.0700;-4.0800
1212.3450;-59.1600;-55.0500;-4.1100
1212.5440;-59.1800;-55.0100;-4.1700
1212.7430;-59.1400;-54.9800;-4.1600
1212.9430;-59.1100;-54.9500;-4.1600
1213.1420;-59.0800;-54.9200;-4.1600
1213.3410;-59.0800;-54.8900;-4.1900
1213.5400;-59.0700;-54.8700;-4.2000
1213.7390;-59.0200;-54.8500;-4.1700
1213.9380;-59.0000;-54.8000;-4.2000
1214.1370;-59.0100;-54.7900;-4.2200
1214.3360;-58.9900;-54.7300;-4.2600
1214.5350;-58.9500;-54.7000;-4.2500
1214.7350;-58.9100;-54.6800;-4.2300
1214.9340;-58.9200;-54.6300;-4.2900
1215.1330;-58.8900;-54.5800;-4.3100
1215.3320;-58.8200;-54.5300;-4.2900
1215.5310;-58.8000;-54.4900;-4.3100
1215.7300;-58.7700;-54.4500;-4.3200
1215.9290;-58.7700;-54.3900;-4.3800
1216.1280;-58.6900;-54.3300;-4.3600
1216.3270;-58.6200;-54.2600;-4.3600
1216.5270;-58.6000;-54.2300;-4.3700
1216.7260;-58.5800;-54.1800;-4.4000
1216.9250;-58.5500;-54.1000;-4.4500
1217.1240;-58.4800;-54.0500;-4.4300
1217.3230;-58.4400;-53.9900;-4.4500
1217.5220;-58.4500;-53.9400;-4.5100
1217.7210;-58.4000;-53.9000;-4.5000
1217.9200;-58.3400;-53.8400;-4.5000
1218.1200;-58.3100;-53.8000;-4.5100
1218.3190;-58.2900;-53.7500;-4.5400
1218.5180;-58.2800;-53.7100;-4.5700
1218.7170;-58.2100;-53.6600;-4.5500
1218.9160;-58.2000;-53.6300;-4.5700
1219.1150;-58.1900;-53.6100;-4.5800
1219.3140;-58.1800;-53.5500;-4.6300
1219.5130;-58.1300;-53.5300;-4.6000
1219.7120;-58.0800;-53.5100;-4.5700
1219.9120;-58.0800;-53.4600;-4.6200
1220.1110;-58.0400;-53.4300;-4.6100
1220.3100;-57.9600;-53.3900;-4.5700
1220.5090;-57.9000;-53.3500;-4.5500
1220.7080;-57.8900;-53.3300;-4.5600
1220.9070;-57.8500;-53.2800;-4.5700
1221.1060;-57.7400;-53.2200;-4.5200
1221.3050;-57.6700;-53.1900;-4.4800
1221.5040;-57.6100;-53.1400;-4.4700
1221.7040;-57.5300;-53.0800;-4.4500
1221.9030;-57.4500;-53.0300;-4.4200
1222.1020;-57.3300;-52.9700;-4.3600
1222.3010;-57.2600;-52.9100;-4.3500
1222.5000;-57.1800;-52.8400;-4.3400
1222.6990;-57.0700;-52.7900;-4.2800
1222.8980;-56.9700;-52.7100;-4.2600
1223.0970;-56.8800;-52.6500;-4.2300
1223.2970;-56.8200;-52.5800;-4.2400
1223.4960;-56.7000;-52.5000;-4.2000
1223.6950;-56.6000;-52.4500;-4.1500
1223.8940;-56.5600;-52.3800;-4.1800
1224.0930;-56.4700;-52.3100;-4.1600
1224.2920;-56.3800;-52.2400;-4.1400
1224.4910;-56.3000;-52.1800;-4.1200
1224.6900;-56.2400;-52.1300;-4.1100
1224.8890;-56.1900;-52.0500;-4.1400
1225.0890;-56.1100;-52.0100;-4.1000
1225.2880;-56.0100;-51.9300;-4.0800
1225.4870;-55.9600;-51.8700;-4.0900
1225.6860;-55.9100;-51.8400;-4.0700
1225.8850;-55.8500;-51.7800;-4.0700
1226.0840;-55.7400;-51.7300;-4.0100
1226.2830;-55.7200;-51.6800;-4.0400
1226.4820;-55.6700;-51.6200;-4.0500
1226.6810;-55.6200;-51.5900;-4.0300
1226.8810;-55.5600;-51.5400;-4.0200
1227.0800;-55.5400;-51.4800;-4.0600
1227.2790;-55.5300;-51.4400;-4.0900
1227.4780;-55.4900;-51.3800;-4.1100
1227.6770;-55.4800;-51.3400;-4.1400
1227.8760;-55.5000;-51.2700;-4.2300
1228.0750;-55.5100;-51.2200;-4.2900
1228.2740;-55.5300;-51.1500;-4.3800
1228.4740;-55.5400;-51.0800;-4.4600
1228.6730;-55.5800;-51.0300;-4.5500
1228.8720;-55.6300;-50.9500;-4.6800
1229.0710;-55.6300;-50.8900;-4.7400
1229.2700;-55.6600;-50.8100;-4.8500
1229.4690;-55.6800;-50.7200;-4.9600
1229.6680;-55.6900;-50.6700;-5.0200
1229.8670;-55.6700;-50.5700;-5.1000
1230.0660;-55.6500;-50.4900;-5.1600
1230.2660;-55.6300;-50.4100;-5.2200
1230.4650;-55.5800;-50.3300;-5.2500
1230.6640;-55.5100;-50.2600;-5.2500
1230.8630;-55.4500;-50.1800;-5.2700
1231.0620;-55.3700;-50.1100;-5.2600
1231.2610;-55.2800;-50.0500;-5.2300
1231.4600;-55.1500;-49.9800;-5.1700
1231.6590;-55.0100;-49.9300;-5.0800
1231.8580;-54.8700;-49.8500;-5.0200
1232.0580;-54.7100;-49.8100;-4.9000
1232.2570;-54.5200;-49.7400;-4.7800
1232.4560;-54.3400;-49.6800;-4.6600
1232.6550;-54.1500;-49.6400;-4.5100
1232.8540;-53.9500;-49.5700;-4.3800
1233.0530;-53.7500;-49.5300;-4.2200
1233.2520;-53.5900;-49.4600;-4.1300
1233.4510;-53.4100;-49.4100;-4.0000
1233.6500;-53.2600;-49.3700;-3.8900
1233.8500;-53.1200;-49.3000;-3.8200
1234.0490;-53.0000;-49.2500;-3.7500
1234.2480;-52.9200;-49.1800;-3.7400
1234.4470;-52.8300;-49.1200;-3.7100
1234.6460;-52.7700;-49.0600;-3.7100
1234.8450;-52.7400;-48.9900;-3.7500
1235.0440;-52.7200;-48.9300;-3.7900
1235.2430;-52.7400;-48.8400;-3.9000
1235.4430;-52.7300;-48.7600;-3.9700
1235.6420;-52.7600;-48.6900;-4.0700
1235.8410;-52.7900;-48.6000;-4.1900
1236.0400;-52.8100;-48.5300;-4.2800
1236.2390;-52.8300;-48.4200;-4.4100
1236.4380;-52.8400;-48.3300;-4.5100
1236.6370;-52.8600;-48.2500;-4.6100
1236.8360;-52.8300;-48.1500;-4.6800
1237.0350;-52.8100;-48.0800;-4.7300
1237.2350;-52.7900;-47.9900;-4.8000
1237.4340;-52.7300;-47.9000;-4.8300
1237.6330;-52.6700;-47.8100;-4.8600
1237.8320;-52.5900;-47.7400;-4.8500
1238.0310;-52.5000;-47.6600;-4.8400
1238.2300;-52.4100;-47.5700;-4.8400
1238.4290;-52.2700;-47.5000;-4.7700
1238.6280;-52.1700;-47.4200;-4.7500
1238.8270;-52.0500;-47.3400;-4.7100
1239.0270;-51.9200;-47.2700;-4.6500
1239.2260;-51.7900;-47.1800;-4.6100
1239.4250;-51.6600;-47.1100;-4.5500
1239.6240;-51.5700;-47.0300;-4.5400
1239.8230;-51.4400;-46.9400;-4.5000
1240.0220;-51.3300;-46.8700;-4.4600
1240.2210;-51.2500;-46.7700;-4.4800
1240.4200;-51.1500;-46.6900;-4.4600
1240.6200;-51.0800;-46.5900;-4.4900
1240.8190;-50.9900;-46.4900;-4.5000
1241.0180;-50.9100;-46.3800;-4.5300
1241.2170;-50.8600;-46.2700;-4.5900
1241.4160;-50.7700;-46.1700;-4.6000
1241.6150;-50.7000;-46.0300;-4.6700
1241.8140;-50.6300;-45.9100;-4.7200
1242.0130;-50.5400;-45.8000;-4.7400
1242.2120;-50.4400;-45.6900;-4.7500
1242.4120;-50.3400;-45.5600;-4.7800
1242.6110;-50.2300;-45.4200;-4.8100
1242.8100;-50.0800;-45.3100;-4.7700
1243.0090;-49.9200;-45.1700;-4.7500
1243.2080;-49.7900;-45.0500;-4.7400
1243.4070;-49.6300;-44.9200;-4.7100
1243.6060;-49.4700;-44.7900;-4.6800
1243.8050;-49.3100;-44.6800;-4.6300
1244.0040;-49.1500;-44.5400;-4.6100
1244.2040;-49.0100;-44.4100;-4.6000
1244.4030;-48.8600;-44.2900;-4.5700
1244.6020;-48.7300;-44.1600;-4.5700
1244.8010;-48.6100;-44.0500;-4.5600
1245.0000;-48.5000;-43.9100;-4.5900
1245.1990;-48.4100;-43.7900;-4.6200
1245.3980;-48.3200;-43.6700;-4.6500
1245.5970;-48.2500;-43.5300;-4.7200
1245.7970;-48.1500;-43.4100;-4.7400
1245.9960;-48.0600;-43.2600;-4.8000
1246.1950;-47.9800;-43.1400;-4.8400
1246.3940;-47.8600;-43.0000;-4.8600
1246.5930;-47.7300;-42.8500;-4.8800
1246.7920;-47.5900;-42.7300;-4.8600
1246.9910;-47.4100;-42.5600;-4.8500
1247.1900;-47.2100;-42.4200;-4.7900
1247.3890;-46.9700;-42.2700;-4.7000
1247.5890;-46.7200;-42.1100;-4.6100
1247.7880;-46.4200;-41.9700;-4.4500
1247.9870;-46.1000;-41.8000;-4.3000
1248.1860;-45.7200;-41.6500;-4.0700
1248.3850;-45.4600;-41.5000;-3.9600
1248.5840;-45.1100;-41.3300;-3.7800
1248.7830;-44.7600;-41.1800;-3.5800
1248.9820;-44.4500;-41.0200;-3.4300
1249.1810;-44.1100;-40.8700;-3.2400
1249.3810;-43.8000;-40.7200;-3.0800
1249.5800;-43.5000;-40.5600;-2.9400
1249.7790;-43.2200;-40.4200;-2.8000
1249.9780;-42.9600;-40.2500;-2.7100
1250.1770;-42.7000;-40.1100;-2.5900
1250.3760;-42.4800;-39.9700;-2.5100
1250.5750;-42.2700;-39.8100;-2.4600
1250.7740;-42.0700;-39.6700;-2.4000
1250.9740;-41.9200;-39.5200;-2.4000
1251.1730;-41.7600;-39.3800;-2.3800
1251.3720;-41.6200;-39.2300;-2.3900
1251.5710;-41.4900;-39.0900;-2.4000
1251.7700;-41.3700;-38.9500;-2.4200
1251.9690;-41.2600;-38.7900;-2.4700
1252.1680;-41.1400;-38.6400;-2.5000
1252.3670;-41.0300;-38.4700;-2.5600
1252.5660;-40.9500;-38.3200;-2.6300
1252.7660;-40.8400;-38.1700;-2.6700
1252.9650;-40.7500;-38.0100;-2.7400
1253.1640;-40.6400;-37.8500;-2.7900
1253.3630;-40.5400;-37.6800;-2.8600
1253.5620;-40.4300;-37.5200;-2.9100
1253.7610;-40.3200;-37.3500;-2.9700
1253.9600;-40.2300;-37.1900;-3.0400
1254.1590;-40.1000;-37.0300;-3.0700
1254.3580;-39.9800;-36.8500;-3.1300
1254.5580;-39.8700;-36.7000;-3.1700
1254.7570;-39.7600;-36.5400;-3.2200
1254.9560;-39.6500;-36.3700;-3.2800
1255.1550;-39.5300;-36.2300;-3.3000
1255.3540;-39.4200;-36.0600;-3.3600
1255.5530;-39.3100;-35.9200;-3.3900
1255.7520;-39.1800;-35.7400;-3.4400
1255.9510;-39.0800;-35.6300;-3.4500
1256.1500;-38.9600;-35.4900;-3.4700
1256.3500;-38.8500;-35.3400;-3.5100
1256.5490;-38.7200;-35.2200;-3.5000
1256.7480;-38.5900;-35.0700;-3.5200
1256.9470;-38.4700;-34.9400;-3.5300
1257.1460;-38.3200;-34.8000;-3.5200
1257.3450;-38.1800;-34.6600;-3.5200
1257.5440;-38.0300;-34.5400;-3.4900
1257.7430;-37.8700;-34.3900;-3.4800
1257.9430;-37.7000;-34.2500;-3.4500
1258.1420;-37.5200;-34.1200;-3.4000
1258.3410;-37.3400;-33.9700;-3.3700
1258.5400;-37.1500;-33.8400;-3.3100
1258.7390;-36.9400;-33.6800;-3.2600
1258.9380;-36.7400;-33.5400;-3.2000
1259.1370;-36.5300;-33.3900;-3.1400
1259.3360;-36.3200;-33.2400;-3.0800
1259.5350;-36.1000;-33.1000;-3.0000
1259.7350;-35.8500;-32.9400;-2.9100
1259.9340;-35.6500;-32.8000;-2.8500
1260.1330;-35.4500;-32.6500;-2.8000
1260.3320;-35.2200;-32.4900;-2.7300
1260.5310;-35.0200;-32.3600;-2.6600
1260.7300;-34.8200;-32.2000;-2.6200
1260.9290;-34.6100;-32.0700;-2.5400
1261.1280;-34.4100;-31.9200;-2.4900
1261.3270;-34.2100;-31.7700;-2.4400
1261.5270;-34.0400;-31.6500;-2.3900
1261.7260;-33.8600;-31.5100;-2.3500
1261.9250;-33.6700;-31.3800;-2.2900
1262.1240;-33.5100;-31.2400;-2.2700
1262.3230;-33.3400;-31.1100;-2.2300
1262.5220;-33.1900;-31.0000;-2.1900
1262.7210;-33.0400;-30.8600;-2.1800
1262.9200;-32.8800;-30.7400;-2.1400
1263.1200;-32.7400;-30.6000;-2.1400
1263.3190;-32.5900;-30.4700;-2.1200
1263.5180;-32.4500;-30.3600;-2.0900
1263.7170;-32.3300;-30.2100;-2.1200
1263.9160;-32.1800;-30.0900;-2.0900
1264.1150;-32.0500;-29.9500;-2.1000
1264.3140;-31.9100;-29.8100;-2.1000
1264.5130;-31.7800;-29.6900;-2.0900
1264.7120;-31.6600;-29.5500;-2.1100
1264.9120;-31.5300;-29.4200;-2.1100
1265.1110;-31.4100;-29.2700;-2.1400
1265.3100;-31.2800;-29.1400;-2.1400
1265.5090;-31.1700;-29.0100;-2.1600
1265.7080;-31.0800;-28.8700;-2.2100
1265.9070;-30.9700;-28.7500;-2.2200
1266.1060;-30.8800;-28.6100;-2.2700
1266.3050;-30.7800;-28.4800;-2.3000
1266.5040;-30.7100;-28.3700;-2.3400
1266.7040;-30.6500;-28.2400;-2.4100
1266.9030;-30.5800;-28.1200;-2.4600
1267.1020;-30.5400;-27.9900;-2.5500
1267.3010;-30.5000;-27.8700;-2.6300
1267.5000;-30.4900;-27.7700;-2.7200
1267.6990;-30.4900;-27.6500;-2.8400
1267.8980;-30.4900;-27.5500;-2.9400
1268.0970;-30.5400;-27.4300;-3.1100
1268.2970;-30.5800;-27.3200;-3.2600
1268.4960;-30.6500;-27.2200;-3.4300
1268.6950;-30.7500;-27.1000;-3.6500
1268.8940;-30.8600;-27.0000;-3.8600
1269.0930;-31.0100;-26.8800;-4.1300
1269.2920;-31.1800;-26.7700;-4.4100
1269.4910;-31.4000;-26.6600;-4.7400
1269.6900;-31.6500;-26.5400;-5.1100
1269.8890;-31.9300;-26.4400;-5.4900
1270.0890;-32.2700;-26.3100;-5.9600
1270.2880;-32.6600;-26.2000;-6.4600
1270.4870;-33.1200;-26.0700;-7.0500
1270.6860;-33.6500;-25.9700;-7.6800
1270.8850;-34.2500;-25.8500;-8.4000
1271.0840;-34.9600;-25.7300;-9.2300
1271.2830;-35.7500;-25.6300;-10.1200
1271.4820;-36.6500;-25.5000;-11.1500
1271.6810;-37.6600;-25.3900;-12.2700
1271.8810;-38.9700;-25.2800;-13.6900
1272.0800;-39.8400;-25.1700;-14.6700
1272.2790;-40.6800;-25.0600;-15.6200
1272.4780;-41.0200;-24.9500;-16.0700
1272.6770;-40.6000;-24.8500;-15.7500
1272.8760;-39.5800;-24.7400;-14.8400
1273.0750;-38.2500;-24.6500;-13.6000
1273.2740;-36.8500;-24.5600;-12.2900
1273.4740;-35.3100;-24.4500;-10.8600
1273.6730;-34.2700;-24.3700;-9.9000
1273.8720;-33.1800;-24.2700;-8.9100
1274.0710;-32.1600;-24.1800;-7.9800
1274.2700;-31.2600;-24.0900;-7.1700
1274.4690;-30.4400;-23.9900;-6.4500
1274.6680;-29.6900;-23.9100;-5.7800
1274.8670;-29.0300;-23.8100;-5.2200
1275.0660;-28.4200;-23.7200;-4.7000
1275.2660;-27.8800;-23.6400;-4.2400
1275.4650;-27.3800;-23.5400;-3.8400
1275.6640;-26.9300;-23.4600;-3.4700
1275.8630;-26.5500;-23.3600;-3.1900
1276.0620;-26.1800;-23.2700;-2.9100
1276.2610;-25.8300;-23.1800;-2.6500
1276.4600;-25.5900;-23.0900;-2.5000
1276.6590;-25.3400;-23.0000;-2.3400
1276.8580;-25.1300;-22.9000;-2.2300
1277.0580;-24.9400;-22.8200;-2.1200
1277.2570;-24.8000;-22.7300;-2.0700
1277.4560;-24.6600;-22.6400;-2.0200
1277.6550;-24.5700;-22.5700;-2.0000
1277.8540;-24.4800;-22.4700;-2.0100
1278.0530;-24.4100;-22.4000;-2.0100
1278.2520;-24.3600;-22.3100;-2.0500
1278.4510;-24.3200;-22.2300;-2.0900
1278.6500;-24.3100;-22.1600;-2.1500
1278.8500;-24.2700;-22.0700;-2.2000
1279.0490;-24.2600;-22.0000;-2.2600
1279.2480;-24.2500;-21.9200;-2.3300
1279.4470;-24.2400;-21.8400;-2.4000
1279.6460;-24.2400;-21.7700;-2.4700
1279.8450;-24.2100;-21.6800;-2.5300
1280.0440;-24.1900;-21.6200;-2.5700
1280.2430;-24.1600;-21.5400;-2.6200
1280.4430;-24.1300;-21.4600;-2.6700
1280.6420;-24.1100;-21.3900;-2.7200
1280.8410;-24.0500;-21.3100;-2.7400
1281.0400;-24.0100;-21.2400;-2.7700
1281.2390;-23.9600;-21.1600;-2.8000
1281.4380;-23.9200;-21.0800;-2.8400
1281.6370;-23.8800;-21.0100;-2.8700
1281.8360;-23.8300;-20.9300;-2.9000
1282.0350;-23.8000;-20.8700;-2.9300
1282.2350;-23.7700;-20.7800;-2.9900
1282.4340;-23.7500;-20.7100;-3.0400
1282.6330;-23.7700;-20.6500;-3.1200
1282.8320;-23.7700;-20.5800;-3.1900
1283.0310;-23.8000;-20.5200;-3.2800
1283.2300;-23.8300;-20.4500;-3.3800
1283.4290;-23.8900;-20.3900;-3.5000
1283.6280;-23.9700;-20.3200;-3.6500
1283.8270;-24.0600;-20.2600;-3.8000
1284.0270;-24.1800;-20.2100;-3.9700
1284.2260;-24.3100;-20.1400;-4.1700
1284.4250;-24.4600;-20.0900;-4.3700
1284.6240;-24.6300;-20.0300;-4.6000
1284.8230;-24.8200;-19.9700;-4.8500
1285.0220;-25.0300;-19.9300;-5.1000
1285.2210;-25.2300;-19.8600;-5.3700
1285.4200;-25.4700;-19.8100;-5.6600
1285.6200;-25.7100;-19.7500;-5.9600
1285.8190;-25.9500;-19.6900;-6.2600
1286.0180;-26.2100;-19.6500;-6.5600
1286.2170;-26.4300;-19.5800;-6.8500
1286.4160;-26.6600;-19.5400;-7.1200
1286.6150;-26.8800;-19.4900;-7.3900
1286.8140;-27.0400;-19.4300;-7.6100
1287.0130;-27.1800;-19.3900;-7.7900
1287.2120;-27.2200;-19.3300;-7.8900
1287.4120;-27.2300;-19.2900;-7.9400
1287.6110;-27.1500;-19.2300;-7.9200
1287.8100;-26.9900;-19.1800;-7.8100
1288.0090;-26.7800;-19.1400;-7.6400
1288.2080;-26.4900;-19.0800;-7.4100
1288.4070;-26.1600;-19.0500;-7.1100
1288.6060;-25.7600;-19.0000;-6.7600
1288.8050;-25.3500;-18.9600;-6.3900
1289.0040;-24.9300;-18.9200;-6.0100
1289.2040;-24.4700;-18.8700;-5.6000
1289.4030;-24.0400;-18.8500;-5.1900
1289.6020;-23.5900;-18.8000;-4.7900
1289.8010;-23.1700;-18.7600;-4.4100
1290.0000;-22.7600;-18.7200;-4.0400
1290.1990;-22.3600;-18.6800;-3.6800
1290.3980;-21.9900;-18.6600;-3.3300
1290.5970;-21.6300;-18.6200;-3.0100
1290.7970;-21.2900;-18.5900;-2.7000
1290.9960;-20.9600;-18.5300;-2.4300
1291.1950;-20.6600;-18.5000;-2.1600
1291.3940;-20.4000;-18.4700;-1.9300
1291.5930;-20.1400;-18.4100;-1.7300
1291.7920;-19.9200;-18.3900;-1.5300
1291.9910;-19.7100;-18.3400;-1.3700
1292.1900;-19.5300;-18.3100;-1.2200
1292.3890;-19.3900;-18.2700;-1.1200
1292.5890;-19.2500;-18.2200;-1.0300
1292.7880;-19.1500;-18.2000;-0.9500
1292.9870;-19.0600;-18.1500;-0.9100
1293.1860;-19.0000;-18.1300;-0.8700
1293.3850;-18.9700;-18.0900;-0.8800
1293.5840;-18.9400;-18.0500;-0.8900
1293.7830;-18.9600;-18.0200;-0.9400
1293.9820;-18.9900;-17.9900;-1.0000
1294.1810;-19.0500;-17.9700;-1.0800
1294.3810;-19.1300;-17.9300;-1.2000
1294.5800;-19.2200;-17.8900;-1.3300
1294.7790;-19.3600;-17.8700;-1.4900
1294.9780;-19.5000;-17.8400;-1.6600
1295.1770;-19.6900;-17.8200;-1.8700
1295.3760;-19.8900;-17.7900;-2.1000
1295.5750;-20.1000;-17.7600;-2.3400
1295.7740;-20.3600;-17.7300;-2.6300
1295.9740;-20.6300;-17.6900;-2.9400
1296.1730;-20.9400;-17.6800;-3.2600
1296.3720;-21.2700;-17.6500;-3.6200
1296.5710;-21.6100;-17.6300;-3.9800
1296.7700;-22.0000;-17.6000;-4.4000
1296.9690;-22.4000;-17.5800;-4.8200
1297.1680;-22.8400;-17.5700;-5.2700
1297.3670;-23.2900;-17.5500;-5.7400
1297.5660;-23.7500;-17.5300;-6.2200
1297.7660;-24.2300;-17.5100;-6.7200
1297.9650;-24.7000;-17.4900;-7.2100
1298.1640;-25.1800;-17.4800;-7.7000
1298.3630;-25.6300;-17.4700;-8.1600
1298.5620;-26.0400;-17.4600;-8.5800
1298.7610;-26.3700;-17.4400;-8.9300
1298.9600;-26.6200;-17.4400;-9.1800
1299.1590;-26.7700;-17.4300;-9.3400
1299.3580;-26.7900;-17.4200;-9.3700
1299.5580;-26.6900;-17.4200;-9.2700
1299.7570;-26.4600;-17.4100;-9.0500
1299.9560;-26.1600;-17.4100;-8.7500
1300.1550;-25.7900;-17.4000;-8.3900
1300.3540;-25.3600;-17.4000;-7.9600
1300.5530;-24.9100;-17.4000;-7.5100
1300.7520;-24.4300;-17.3900;-7.0400
1300.9510;-23.9700;-17.4000;-6.5700
1301.1500;-23.5200;-17.4000;-6.1200
1301.3500;-23.0800;-17.4000;-5.6800
1301.5490;-22.6700;-17.4100;-5.2600
1301.7480;-22.2600;-17.4100;-4.8500
1301.9470;-21.9000;-17.4200;-4.4800
1302.1460;-21.5400;-17.4200;-4.1200
1302.3450;-21.2000;-17.4300;-3.7700
1302.5440;-20.9100;-17.4300;-3.4800
1302.7430;-20.6200;-17.4300;-3.1900
1302.9430;-20.3700;-17.4400;-2.9300
1303.1420;-20.1300;-17.4400;-2.6900
1303.3410;-19.9100;-17.4600;-2.4500
1303.5400;-19.7200;-17.4600;-2.2600
1303.7390;-19.5400;-17.4600;-2.0800
1303.9380;-19.4000;-17.4700;-1.9300
1304.1370;-19.2700;-17.4800;-1.7900
1304.3360;-19.1600;-17.5000;-1.6600
1304.5350;-19.0600;-17.5000;-1.5600
1304.7350;-18.9900;-17.5100;-1.4800
1304.9340;-18.9400;-17.5200;-1.4200
1305.1330;-18.9000;-17.5300;-1.3700
1305.3320;-18.9000;-17.5500;-1.3500
1305.5310;-18.9000;-17.5600;-1.3400
1305.7300;-18.9300;-17.5800;-1.3500
1305.9290;-18.9700;-17.5800;-1.3900
1306.1280;-19.0400;-17.6000;-1.4400
1306.3270;-19.1400;-17.6100;-1.5300
1306.5270;-19.2400;-17.6300;-1.6100
1306.7260;-19.3800;-17.6500;-1.7300
1306.9250;-19.5200;-17.6500;-1.8700
1307.1240;-19.7000;-17.6800;-2.0200
1307.3230;-19.9100;-17.6900;-2.2200
1307.5220;-20.1300;-17.7100;-2.4200
1307.7210;-20.3900;-17.7400;-2.6500
1307.9200;-20.6500;-17.7500;-2.9000
1308.1200;-20.9600;-17.7900;-3.1700
1308.3190;-21.3000;-17.8000;-3.5000
1308.5180;-21.6600;-17.8400;-3.8200
1308.7170;-22.0700;-17.8800;-4.1900
1308.9160;-22.4800;-17.8900;-4.5900
1309.1150;-22.9600;-17.9400;-5.0200
1309.3140;-23.4600;-17.9600;-5.5000
1309.5130;-24.0000;-18.0100;-5.9900
1309.7120;-24.5800;-18.0500;-6.5300
1309.9120;-25.1800;-18.0700;-7.1100
