Wavelength;Intensity_Meas;Intensity_Ref;Difference_dB
1200.0000;-61.1200;-56.1700;-4.9500
1200.1990;-61.0800;-56.1300;-4.9500
1200.3980;-61.0700;-56.1000;-4.9700
1200.5970;-61.0700;-56.0800;-4.9900
1200.7970;-61.0400;-56.0500;-4.9900
1200.9960;-61.0100;-56.0200;-4.9900
1201.1950;-60.9700;-55.9700;-5.0000
1201.3940;-60.9600;-55.9300;-5.0300
1201.5930;-60.9300;-55.9000;-5.0300
1201.7920;-60.8300;-55.8500;-4.9800
1201.9910;-60.8400;-55.8100;-5.0300
1202.1900;-60.7800;-55.7500;-5.0300
1202.3890;-60.7000;-55.7000;-5.0000
1202.5890;-60.6600;-55.6600;-5.0000
1202.7880;-60.6600;-55.5900;-5.0700
1202.9870;-60.6100;-55.5400;-5.0700
1203.1860;-60.5300;-55.4800;-5.0500
1203.3850;-60.4800;-55.4400;-5.0400
1203.5840;-60.5200;-55.4200;-5.1000
1203.7830;-60.4600;-55.3500;-5.1100
1203.9820;-60.4100;-55.3200;-5.0900
1204.1810;-60.3700;-55.2800;-5.0900
1204.3810;-60.3500;-55.2400;-5.1100
1204.5800;-60.3500;-55.2300;-5.1200
1204.7790;-60.3000;-55.1800;-5.1200
1204.9780;-60.2800;-55.1500;-5.1300
1205.1770;-60.2600;-55.1200;-5.1400
1205.3760;-60.2300;-55.0900;-5.1400
1205.5750;-60.2300;-55.0900;-5.1400
1205.7740;-60.1600;-55.0500;-5.1100
1205.9740;-60.1400;-55.0400;-5.1000
1206.1730;-60.1100;-55.0200;-5.0900
1206.3720;-60.1000;-54.9900;-5.1100
1206.5710;-60.0600;-54.9800;-5.0800
1206.7700;-59.9900;-54.9500;-5.0400
1206.9690;-59.9700;-54.9300;-5.0400
1207.1680;-59.9500;-54.9000;-5.0500
1207.3670;-59.8900;-54.8600;-5.0300
1207.5660;-59.8200;-54.8500;-4.9700
1207.7660;-59.7900;-54.8000;-4.9900
1207.9650;-59.7700;-54.7700;-5.0000
1208.1640;-59.6900;-54.7200;-4.9700
1208.3630;-59.6200;-54.6800;-4.9400
1208.5620;-59.5700;-54.6500;-4.9200
1208.7610;-59.5200;-54.5800;-4.9400
1208.9600;-59.5000;-54.5400;-4.9600
1209.1590;-59.4200;-54.4900;-4.9300
1209.3580;-59.3200;-54.4300;-4.8900
1209.5580;-59.3400;-54.4000;-4.9400
1209.7570;-59.2700;-54.3400;-4.9300
1209.9560;-59.1900;-54.2800;-4.9100
1210.1550;-59.1100;-54.2300;-4.8800
1210.3540;-59.0600;-54.1800;-4.8800
1210.5530;-59.0500;-54.1400;-4.9100
1210.7520;-58.9800;-54.0800;-4.9000
1210.9510;-58.9000;-54.0300;-4.8700
1211.1500;-58.8600;-54.0000;-4.8600
1211.3500;-58.8100;-53.9500;-4.8600
1211.5490;-58.7900;-53.9200;-4.8700
1211.7480;-58.7000;-53.8800;-4.8200
1211.9470;-58.6700;-53.8400;-4.8300
1212.1460;-58.6500;-53.8200;-4.8300
1212.3450;-58.6400;-53.7700;-4.8700
1212.5440;-58.6100;-53.7600;-4.8500
1212.7430;-58.5600;-53.7200;-4.8400
1212.9430;-58.5500;-53.6800;-4.8700
1213.1420;-58.5500;-53.6700;-4.8800
1213.3410;-58.5100;-53.6300;-4.8800
1213.5400;-58.4900;-53.6100;-4.8800
1213.7390;-58.5000;-53.5700;-4.9300
1213.9380;-58.5300;-53.5300;-5.0000
1214.1370;-58.4800;-53.5100;-4.9700
1214.3360;-58.4500;-53.4600;-4.9900
1214.5350;-58.4700;-53.4400;-5.0300
1214.7350;-58.4800;-53.3900;-5.0900
1214.9340;-58.4500;-53.3400;-5.1100
1215.1330;-58.4200;-53.2900;-5.1300
1215.3320;-58.4000;-53.2400;-5.1600
1215.5310;-58.4000;-53.2000;-5.2000
1215.7300;-58.3600;-53.1400;-5.2200
1215.9290;-58.3100;-53.0800;-5.2300
1216.1280;-58.2600;-53.0300;-5.2300
1216.3270;-58.2400;-52.9600;-5.2800
1216.5270;-58.2000;-52.9200;-5.2800
1216.7260;-58.1100;-52.8600;-5.2500
1216.9250;-58.0600;-52.7900;-5.2700
1217.1240;-58.0300;-52.7400;-5.2900
1217.3230;-57.9900;-52.6700;-5.3200
1217.5220;-57.9300;-52.6300;-5.3000
1217.7210;-57.8500;-52.5700;-5.2800
1217.9200;-57.8300;-52.5200;-5.3100
1218.1200;-57.7900;-52.4800;-5.3100
1218.3190;-57.7100;-52.4200;-5.2900
1218.5180;-57.6700;-52.3900;-5.2800
1218.7170;-57.6400;-52.3400;-5.3000
1218.9160;-57.6300;-52.2900;-5.3400
1219.1150;-57.5600;-52.2600;-5.3000
1219.3140;-57.4900;-52.2100;-5.2800
1219.5130;-57.4900;-52.1900;-5.3000
1219.7120;-57.4700;-52.1500;-5.3200
1219.9120;-57.4300;-52.1100;-5.3200
1220.1110;-57.3700;-52.0700;-5.3000
1220.3100;-57.3400;-52.0300;-5.3100
1220.5090;-57.3300;-52.0000;-5.3300
1220.7080;-57.2900;-51.9500;-5.3400
1220.9070;-57.2200;-51.9100;-5.3100
1221.1060;-57.1600;-51.8500;-5.3100
1221.3050;-57.1300;-51.8000;-5.3300
1221.5040;-57.0700;-51.7500;-5.3200
1221.7040;-56.9900;-51.6800;-5.3100
1221.9030;-56.9500;-51.6300;-5.3200
1222.1020;-56.8900;-51.5700;-5.3200
1222.3010;-56.8200;-51.5000;-5.3200
1222.5000;-56.7300;-51.4300;-5.3000
1222.6990;-56.6700;-51.3600;-5.3100
1222.8980;-56.6300;-51.2900;-5.3400
1223.0970;-56.5500;-51.2200;-5.3300
1223.2970;-56.4700;-51.1500;-5.3200
1223.4960;-56.4200;-51.0800;-5.3400
1223.6950;-56.3700;-51.0000;-5.3700
1223.8940;-56.3300;-50.9400;-5.3900
1224.0930;-56.2500;-50.8700;-5.3800
1224.2920;-56.2000;-50.8000;-5.4000
1224.4910;-56.1900;-50.7400;-5.4500
1224.6900;-56.1500;-50.6700;-5.4800
1224.8890;-56.0900;-50.6000;-5.4900
1225.0890;-56.0800;-50.5500;-5.5300
1225.2880;-56.0600;-50.4800;-5.5800
1225.4870;-56.0400;-50.4300;-5.6100
1225.6860;-56.0100;-50.3700;-5.6400
1225.8850;-56.0200;-50.3200;-5.7000
1226.0840;-56.0100;-50.2700;-5.7400
1226.2830;-56.0100;-50.2100;-5.8000
1226.4820;-55.9700;-50.1600;-5.8100
1226.6810;-55.9600;-50.1100;-5.8500
1226.8810;-55.9800;-50.0600;-5.9200
1227.0800;-55.9500;-50.0000;-5.9500
1227.2790;-55.9200;-49.9500;-5.9700
1227.4780;-55.9100;-49.8900;-6.0200
1227.6770;-55.9100;-49.8300;-6.0800
1227.8760;-55.8800;-49.7700;-6.1100
1228.0750;-55.8400;-49.7100;-6.1300
1228.2740;-55.8100;-49.6400;-6.1700
1228.4740;-55.7800;-49.5700;-6.2100
1228.6730;-55.7300;-49.4900;-6.2400
1228.8720;-55.7000;-49.4200;-6.2800
1229.0710;-55.6600;-49.3500;-6.3100
1229.2700;-55.6200;-49.2600;-6.3600
1229.4690;-55.5700;-49.1900;-6.3800
1229.6680;-55.5300;-49.1000;-6.4300
1229.8670;-55.4900;-49.0100;-6.4800
1230.0660;-55.4500;-48.9500;-6.5000
1230.2660;-55.3900;-48.8500;-6.5400
1230.4650;-55.3400;-48.7700;-6.5700
1230.6640;-55.2900;-48.6900;-6.6000
1230.8630;-55.2700;-48.6200;-6.6500
1231.0620;-55.2100;-48.5500;-6.6600
1231.2610;-55.1700;-48.4800;-6.6900
1231.4600;-55.1400;-48.4300;-6.7100
1231.6590;-55.0800;-48.3500;-6.7300
1231.8580;-55.0200;-48.2800;-6.7400
1232.0580;-54.9500;-48.2300;-6.7200
1232.2570;-54.8900;-48.1600;-6.7300
1232.4560;-54.8300;-48.1200;-6.7100
1232.6550;-54.7400;-48.0400;-6.7000
1232.8540;-54.6700;-47.9800;-6.6900
1233.0530;-54.5900;-47.9300;-6.6600
1233.2520;-54.5000;-47.8600;-6.6400
1233.4510;-54.4000;-47.8100;-6.5900
1233.6500;-54.3000;-47.7400;-6.5600
1233.8500;-54.2100;-47.6800;-6.5300
1234.0490;-54.1100;-47.6200;-6.4900
1234.2480;-53.9900;-47.5400;-6.4500
1234.4470;-53.8900;-47.4800;-6.4100
1234.6460;-53.7800;-47.4000;-6.3800
1234.8450;-53.6800;-47.3300;-6.3500
1235.0440;-53.5400;-47.2400;-6.3000
1235.2430;-53.4400;-47.1600;-6.2800
1235.4430;-53.3200;-47.0800;-6.2400
1235.6420;-53.2000;-46.9800;-6.2200
1235.8410;-53.0800;-46.9000;-6.1800
1236.0400;-52.9700;-46.8100;-6.1600
1236.2390;-52.8400;-46.7100;-6.1300
1236.4380;-52.7200;-46.6200;-6.1000
1236.6370;-52.5900;-46.5300;-6.0600
1236.8360;-52.4900;-46.4400;-6.0500
1237.0350;-52.3600;-46.3400;-6.0200
1237.2350;-52.2400;-46.2500;-5.9900
1237.4340;-52.1200;-46.1600;-5.9600
1237.6330;-52.0100;-46.0700;-5.9400
1237.8320;-51.9200;-46.0000;-5.9200
1238.0310;-51.7900;-45.8900;-5.9000
1238.2300;-51.7000;-45.8300;-5.8700
1238.4290;-51.5900;-45.7300;-5.8600
1238.6280;-51.5000;-45.6600;-5.8400
1238.8270;-51.4100;-45.5800;-5.8300
1239.0270;-51.3200;-45.5000;-5.8200
1239.2260;-51.2300;-45.4200;-5.8100
1239.4250;-51.1400;-45.3300;-5.8100
1239.6240;-51.0600;-45.2500;-5.8100
1239.8230;-50.9900;-45.1600;-5.8300
1240.0220;-50.9000;-45.0700;-5.8300
1240.2210;-50.8300;-44.9900;-5.8400
1240.4200;-50.7400;-44.8800;-5.8600
1240.6200;-50.6700;-44.8000;-5.8700
1240.8190;-50.5900;-44.6900;-5.9000
1241.0180;-50.4800;-44.5700;-5.9100
1241.2170;-50.3900;-44.4700;-5.9200
1241.4160;-50.3000;-44.3500;-5.9500
1241.6150;-50.1800;-44.2300;-5.9500
1241.8140;-50.0700;-44.1100;-5.9600
1242.0130;-49.9500;-43.9900;-5.9600
1242.2120;-49.8400;-43.8800;-5.9600
1242.4120;-49.7000;-43.7400;-5.9600
1242.6110;-49.5500;-43.6100;-5.9400
1242.8100;-49.4300;-43.4900;-5.9400
1243.0090;-49.2600;-43.3500;-5.9100
1243.2080;-49.1100;-43.2300;-5.8800
1243.4070;-48.9500;-43.0900;-5.8600
1243.6060;-48.7800;-42.9700;-5.8100
1243.8050;-48.6300;-42.8400;-5.7900
1244.0040;-48.4400;-42.7100;-5.7300
1244.2040;-48.2800;-42.6000;-5.6800
1244.4030;-48.1100;-42.4600;-5.6500
1244.6020;-47.9200;-42.3400;-5.5800
1244.8010;-47.7500;-42.2200;-5.5300
1245.0000;-47.5700;-42.0900;-5.4800
1245.1990;-47.4100;-41.9900;-5.4200
1245.3980;-47.2200;-41.8600;-5.3600
1245.5970;-47.0300;-41.7300;-5.3000
1245.7970;-46.8700;-41.6100;-5.2600
1245.9960;-46.6700;-41.4800;-5.1900
1246.1950;-46.4900;-41.3600;-5.1300
1246.3940;-46.3100;-41.2300;-5.0800
1246.5930;-46.1200;-41.0900;-5.0300
1246.7920;-45.9400;-40.9600;-4.9800
1246.9910;-45.7200;-40.8100;-4.9100
1247.1900;-45.5800;-40.6900;-4.8900
1247.3890;-45.4000;-40.5400;-4.8600
1247.5890;-45.2200;-40.3900;-4.8300
1247.7880;-45.0400;-40.2500;-4.7900
1247.9870;-44.8700;-40.0900;-4.7800
1248.1860;-44.7200;-39.9500;-4.7700
1248.3850;-44.5600;-39.7900;-4.7700
1248.5840;-44.4100;-39.6300;-4.7800
1248.7830;-44.2700;-39.4900;-4.7800
1248.9820;-44.1300;-39.3300;-4.8000
1249.1810;-44.0300;-39.1900;-4.8400
1249.3810;-43.9100;-39.0300;-4.8800
1249.5800;-43.8000;-38.8700;-4.9300
1249.7790;-43.7000;-38.7300;-4.9700
1249.9780;-43.6000;-38.5600;-5.0400
1250.1770;-43.5400;-38.4300;-5.1100
1250.3760;-43.4700;-38.2700;-5.2000
1250.5750;-43.4100;-38.1200;-5.2900
1250.7740;-43.3600;-37.9800;-5.3800
1250.9740;-43.3300;-37.8500;-5.4800
1251.1730;-43.3100;-37.7200;-5.5900
1251.3720;-43.2900;-37.5600;-5.7300
1251.5710;-43.3000;-37.4400;-5.8600
1251.7700;-43.2900;-37.2900;-6.0000
1251.9690;-43.3000;-37.1500;-6.1500
1252.1680;-43.3300;-37.0100;-6.3200
1252.3670;-43.3600;-36.8600;-6.5000
1252.5660;-43.4200;-36.7300;-6.6900
1252.7660;-43.4800;-36.5700;-6.9100
1252.9650;-43.5600;-36.4300;-7.1300
1253.1640;-43.6500;-36.2900;-7.3600
1253.3630;-43.7500;-36.1200;-7.6300
1253.5620;-43.8700;-35.9900;-7.8800
1253.7610;-43.9900;-35.8000;-8.1900
1253.9600;-44.1200;-35.6800;-8.4400
1254.1590;-44.2600;-35.5100;-8.7500
1254.3580;-44.3900;-35.3500;-9.0400
1254.5580;-44.5300;-35.2100;-9.3200
1254.7570;-44.6300;-35.0400;-9.5900
1254.9560;-44.7200;-34.8900;-9.8300
1255.1550;-44.7800;-34.7300;-10.0500
1255.3540;-44.7900;-34.5700;-10.2200
1255.5530;-44.7800;-34.4300;-10.3500
1255.7520;-44.6800;-34.2700;-10.4100
1255.9510;-44.5500;-34.1300;-10.4200
1256.1500;-44.3700;-33.9700;-10.4000
1256.3500;-44.1200;-33.8400;-10.2800
1256.5490;-43.8600;-33.7100;-10.1500
1256.7480;-43.5300;-33.5600;-9.9700
1256.9470;-43.1800;-33.4300;-9.7500
1257.1460;-42.8100;-33.2900;-9.5200
1257.3450;-42.4000;-33.1500;-9.2500
1257.5440;-42.0200;-33.0300;-8.9900
1257.7430;-41.5900;-32.8800;-8.7100
1257.9430;-41.1700;-32.7500;-8.4200
1258.1420;-40.7500;-32.6100;-8.1400
1258.3410;-40.3200;-32.4700;-7.8500
1258.5400;-39.9200;-32.3500;-7.5700
1258.7390;-39.4800;-32.2000;-7.2800
1258.9380;-39.0600;-32.0700;-6.9900
1259.1370;-38.6600;-31.9200;-6.7400
1259.3360;-38.2500;-31.7800;-6.4700
1259.5350;-37.8700;-31.6400;-6.2300
1259.7350;-37.4800;-31.4900;-5.9900
1259.9340;-37.1100;-31.3500;-5.7600
1260.1330;-36.7500;-31.2000;-5.5500
1260.3320;-36.4000;-31.0600;-5.3400
1260.5310;-36.0900;-30.9200;-5.1700
1260.7300;-35.7000;-30.7700;-4.9300
1260.9290;-35.4600;-30.6400;-4.8200
1261.1280;-35.1700;-30.4900;-4.6800
1261.3270;-34.9100;-30.3600;-4.5500
1261.5270;-34.6500;-30.2300;-4.4200
1261.7260;-34.4100;-30.1000;-4.3100
1261.9250;-34.2000;-29.9700;-4.2300
1262.1240;-33.9900;-29.8300;-4.1600
1262.3230;-33.8100;-29.7100;-4.1000
1262.5220;-33.6400;-29.5900;-4.0500
1262.7210;-33.4900;-29.4600;-4.0300
1262.9200;-33.3500;-29.3500;-4.0000
1263.1200;-33.2200;-29.2200;-4.0000
1263.3190;-33.1300;-29.1000;-4.0300
1263.5180;-33.0300;-28.9800;-4.0500
1263.7170;-32.9600;-28.8600;-4.1000
1263.9160;-32.9000;-28.7400;-4.1600
1264.1150;-32.8500;-28.6000;-4.2500
1264.3140;-32.8400;-28.4800;-4.3600
1264.5130;-32.8300;-28.3500;-4.4800
1264.7120;-32.8400;-28.2200;-4.6200
1264.9120;-32.8700;-28.1000;-4.7700
1265.1110;-32.9100;-27.9600;-4.9500
1265.3100;-32.9800;-27.8300;-5.1500
1265.5090;-33.0600;-27.7000;-5.3600
1265.7080;-33.1700;-27.5700;-5.6000
1265.9070;-33.2800;-27.4400;-5.8400
1266.1060;-33.4100;-27.3000;-6.1100
1266.3050;-33.5600;-27.1800;-6.3800
1266.5040;-33.7200;-27.0500;-6.6700
1266.7040;-33.8900;-26.9300;-6.9600
1266.9030;-34.0500;-26.8000;-7.2500
1267.1020;-34.2200;-26.6700;-7.5500
1267.3010;-34.4000;-26.5600;-7.8400
1267.5000;-34.5600;-26.4300;-8.1300
1267.6990;-34.7100;-26.3200;-8.3900
1267.8980;-34.8100;-26.2000;-8.6100
1268.0970;-34.9000;-26.0700;-8.8300
1268.2970;-34.9500;-25.9700;-8.9800
1268.4960;-34.9400;-25.8600;-9.0800
1268.6950;-34.8900;-25.7500;-9.1400
1268.8940;-34.7600;-25.6200;-9.1400
1269.0930;-34.5900;-25.5100;-9.0800
1269.2920;-34.3500;-25.3900;-8.9600
1269.4910;-34.0600;-25.2800;-8.7800
1269.6900;-33.7200;-25.1700;-8.5500
1269.8890;-33.3200;-25.0400;-8.2800
1270.0890;-32.8900;-24.9200;-7.9700
1270.2880;-32.4400;-24.8000;-7.6400
1270.4870;-31.9700;-24.6900;-7.2800
1270.6860;-31.4800;-24.5700;-6.9100
1270.8850;-30.9600;-24.4400;-6.5200
1271.0840;-30.4600;-24.3200;-6.1400
1271.2830;-29.9700;-24.2000;-5.7700
1271.4820;-29.4700;-24.0800;-5.3900
1271.6810;-29.0100;-23.9700;-5.0400
1271.8810;-28.5300;-23.8300;-4.7000
1272.0800;-28.1000;-23.7300;-4.3700
1272.2790;-27.6700;-23.6100;-4.0600
1272.4780;-27.2700;-23.4900;-3.7800
1272.6770;-26.8900;-23.3900;-3.5000
1272.8760;-26.5200;-23.2700;-3.2500
1273.0750;-26.1700;-23.1700;-3.0000
1273.2740;-25.7900;-23.0600;-2.7300
1273.4740;-25.5300;-22.9500;-2.5800
1273.6730;-25.2400;-22.8600;-2.3800
1273.8720;-24.9500;-22.7500;-2.2000
1274.0710;-24.7000;-22.6600;-2.0400
1274.2700;-24.4400;-22.5500;-1.8900
1274.4690;-24.2000;-22.4500;-1.7500
1274.6680;-23.9800;-22.3600;-1.6200
1274.8670;-23.7600;-22.2500;-1.5100
1275.0660;-23.5800;-22.1700;-1.4100
1275.2660;-23.3800;-22.0600;-1.3200
1275.4650;-23.2100;-21.9600;-1.2500
1275.6640;-23.0400;-21.8700;-1.1700
1275.8630;-22.8900;-21.7700;-1.1200
1276.0620;-22.7700;-21.6800;-1.0900
1276.2610;-22.6300;-21.5800;-1.0500
1276.4600;-22.5300;-21.4800;-1.0500
1276.6590;-22.4100;-21.3800;-1.0300
1276.8580;-22.3300;-21.2800;-1.0500
1277.0580;-22.2700;-21.2000;-1.0700
1277.2570;-22.2100;-21.0900;-1.1200
1277.4560;-22.1800;-21.0100;-1.1700
1277.6550;-22.1400;-20.9200;-1.2200
1277.8540;-22.1300;-20.8300;-1.3000
1278.0530;-22.1400;-20.7500;-1.3900
1278.2520;-22.1500;-20.6600;-1.4900
1278.4510;-22.1900;-20.5800;-1.6100
1278.6500;-22.2200;-20.4900;-1.7300
1278.8500;-22.2800;-20.4100;-1.8700
1279.0490;-22.3600;-20.3400;-2.0200
1279.2480;-22.4400;-20.2500;-2.1900
1279.4470;-22.5600;-20.1900;-2.3700
1279.6460;-22.6600;-20.1000;-2.5600
1279.8450;-22.8000;-20.0200;-2.7800
1280.0440;-22.9500;-19.9500;-3.0000
1280.2430;-23.1000;-19.8700;-3.2300
1280.4430;-23.3000;-19.8100;-3.4900
1280.6420;-23.4900;-19.7200;-3.7700
1280.8410;-23.7000;-19.6400;-4.0600
1281.0400;-23.9300;-19.5700;-4.3600
1281.2390;-24.1700;-19.4900;-4.6800
1281.4380;-24.4500;-19.4200;-5.0300
1281.6370;-24.7200;-19.3300;-5.3900
1281.8360;-25.0200;-19.2500;-5.7700
1282.0350;-25.3100;-19.1700;-6.1400
1282.2350;-25.6200;-19.0800;-6.5400
1282.4340;-25.9500;-19.0200;-6.9300
1282.6330;-26.2600;-18.9400;-7.3200
1282.8320;-26.5600;-18.8600;-7.7000
1283.0310;-26.8200;-18.7800;-8.0400
1283.2300;-27.0400;-18.7000;-8.3400
1283.4290;-27.2200;-18.6400;-8.5800
1283.6280;-27.3200;-18.5500;-8.7700
1283.8270;-27.3700;-18.4900;-8.8800
1284.0270;-27.3100;-18.4100;-8.9000
1284.2260;-27.1600;-18.3300;-8.8300
1284.4250;-26.9600;-18.2800;-8.6800
1284.6240;-26.6700;-18.2000;-8.4700
1284.8230;-26.3400;-18.1300;-8.2100
1285.0220;-25.9300;-18.0500;-7.8800
1285.2210;-25.5100;-17.9800;-7.5300
1285.4200;-25.0600;-17.9200;-7.1400
1285.6200;-24.6000;-17.8400;-6.7600
1285.8190;-24.1500;-17.7800;-6.3700
1286.0180;-23.6700;-17.7000;-5.9700
1286.2170;-23.2200;-17.6300;-5.5900
1286.4160;-22.7700;-17.5700;-5.2000
1286.6150;-22.3400;-17.5000;-4.8400
1286.8140;-21.9300;-17.4400;-4.4900
1287.0130;-21.5100;-17.3600;-4.1500
1287.2120;-21.1200;-17.2900;-3.8300
1287.4120;-20.7400;-17.2200;-3.5200
1287.6110;-20.3800;-17.1500;-3.2300
1287.8100;-20.0500;-17.1000;-2.9500
1288.0090;-19.7200;-17.0200;-2.7000
1288.2080;-19.4300;-16.9600;-2.4700
1288.4070;-19.1300;-16.9000;-2.2300
1288.6060;-18.8600;-16.8300;-2.0300
1288.8050;-18.6100;-16.7800;-1.8300
1289.0040;-18.3600;-16.7100;-1.6500
1289.2040;-18.1500;-16.6600;-1.4900
1289.4030;-17.9200;-16.6000;-1.3200
1289.6020;-17.7300;-16.5500;-1.1800
1289.8010;-17.5500;-16.5000;-1.0500
1290.0000;-17.3700;-16.4300;-0.9400
1290.1990;-17.2200;-16.3900;-0.8300
1290.3980;-17.0600;-16.3300;-0.7300
1290.5970;-16.9300;-16.2900;-0.6400
1290.7970;-16.8100;-16.2500;-0.5600
1290.9960;-16.6800;-16.1800;-0.5000
1291.1950;-16.5800;-16.1400;-0.4400
1291.3940;-16.4700;-16.0800;-0.3900
1291.5930;-16.3800;-16.0400;-0.3400
1291.7920;-16.3000;-15.9800;-0.3200
1291.9910;-16.2200;-15.9400;-0.2800
1292.1900;-16.1500;-15.8900;-0.2600
1292.3890;-16.1100;-15.8500;-0.2600
1292.5890;-16.0600;-15.8000;-0.2600
1292.7880;-16.0000;-15.7500;-0.2500
1292.9870;-15.9800;-15.7100;-0.2700
1293.1860;-15.9400;-15.6600;-0.2800
1293.3850;-15.9100;-15.6200;-0.2900
1293.5840;-15.8900;-15.5800;-0.3100
1293.7830;-15.8700;-15.5300;-0.3400
1293.9820;-15.8700;-15.5000;-0.3700
1294.1810;-15.8500;-15.4500;-0.4000
1294.3810;-15.8500;-15.4200;-0.4300
1294.5800;-15.8300;-15.3800;-0.4500
1294.7790;-15.8300;-15.3400;-0.4900
1294.9780;-15.8400;-15.3100;-0.5300
1295.1770;-15.8200;-15.2700;-0.5500
1295.3760;-15.8200;-15.2400;-0.5800
1295.5750;-15.8100;-15.2000;-0.6100
1295.7740;-15.8100;-15.1600;-0.6500
1295.9740;-15.8000;-15.1300;-0.6700
1296.1730;-15.7800;-15.0800;-0.7000
1296.3720;-15.7800;-15.0600;-0.7200
1296.5710;-15.7500;-15.0200;-0.7300
1296.7700;-15.7300;-14.9800;-0.7500
1296.9690;-15.7200;-14.9600;-0.7600
1297.1680;-15.6900;-14.9300;-0.7600
1297.3670;-15.6800;-14.9000;-0.7800
1297.5660;-15.6400;-14.8500;-0.7900
1297.7660;-15.6100;-14.8200;-0.7900
1297.9650;-15.5900;-14.8000;-0.7900
1298.1640;-15.5600;-14.7600;-0.8000
1298.3630;-15.5400;-14.7400;-0.8000
1298.5620;-15.4900;-14.7000;-0.7900
1298.7610;-15.4700;-14.6700;-0.8000
1298.9600;-15.4400;-14.6500;-0.7900
1299.1590;-15.4100;-14.6200;-0.7900
1299.3580;-15.4000;-14.6000;-0.8000
1299.5580;-15.3600;-14.5600;-0.8000
1299.7570;-15.3400;-14.5400;-0.8000
1299.9560;-15.3200;-14.5200;-0.8000
1300.1550;-15.3200;-14.4900;-0.8300
1300.3540;-15.3200;-14.4800;-0.8400
1300.5530;-15.3000;-14.4300;-0.8700
1300.7520;-15.3200;-14.4100;-0.9100
1300.9510;-15.3100;-14.3900;-0.9200
1301.1500;-15.3400;-14.3800;-0.9600
1301.3500;-15.3700;-14.3700;-1.0000
1301.5490;-15.4000;-14.3500;-1.0500
1301.7480;-15.4500;-14.3400;-1.1100
1301.9470;-15.4800;-14.3200;-1.1600
1302.1460;-15.5500;-14.3100;-1.2400
1302.3450;-15.6200;-14.3000;-1.3200
1302.5440;-15.7000;-14.2800;-1.4200
1302.7430;-15.8100;-14.2800;-1.5300
1302.9430;-15.9000;-14.2600;-1.6400
1303.1420;-16.0200;-14.2500;-1.7700
1303.3410;-16.1500;-14.2400;-1.9100
1303.5400;-16.3000;-14.2400;-2.0600
1303.7390;-16.4700;-14.2400;-2.2300
1303.9380;-16.6300;-14.2100;-2.4200
1304.1370;-16.8500;-14.2200;-2.6300
1304.3360;-17.0500;-14.2100;-2.8400
1304.5350;-17.2900;-14.2100;-3.0800
1304.7350;-17.5400;-14.2200;-3.3200
1304.9340;-17.8000;-14.2100;-3.5900
1305.1330;-18.1100;-14.2200;-3.8900
1305.3320;-18.4700;-14.2100;-4.2600
1305.5310;-18.7700;-14.2200;-4.5500
1305.7300;-19.1200;-14.2300;-4.8900
1305.9290;-19.5100;-14.2200;-5.2900
1306.1280;-19.9600;-14.2400;-5.7200
1306.3270;-20.4100;-14.2400;-6.1700
1306.5270;-20.9300;-14.2500;-6.6800
1306.7260;-21.4600;-14.2600;-7.2000
1306.9250;-22.0400;-14.2600;-7.7800
1307.1240;-22.7000;-14.2800;-8.4200
1307.3230;-23.3900;-14.2800;-9.1100
1307.5220;-24.1600;-14.3000;-9.8600
1307.7210;-24.9800;-14.3100;-10.6700
1307.9200;-25.8900;-14.3100;-11.5800
1308.1200;-26.8600;-14.3500;-12.5100
1308.3190;-27.8900;-14.3500;-13.5400
1308.5180;-29.1800;-14.3700;-14.8100
1308.7170;-29.9700;-14.3800;-15.5900
1308.9160;-30.7800;-14.3900;-16.3900
1309.1150;-31.2400;-14.4300;-16.8100
1309.3140;-31.2300;-14.4300;-16.8000
1309.5130;-30.7400;-14.4700;-16.2700
1309.7120;-29.9200;-14.4800;-15.4400
1309.9120;-28.9500;-14.5000;-14.4500
