Wavelength;Intensity_Meas;Intensity_Ref;Difference_dB
1200.0000;-61.0700;-56.1700;-4.9000
1200.1990;-61.0100;-56.1300;-4.8800
1200.3980;-61.0000;-56.1000;-4.9000
1200.5970;-61.0200;-56.0800;-4.9400
1200.7970;-61.0000;-56.0500;-4.9500
1200.9960;-60.9500;-56.0200;-4.9300
1201.1950;-60.9100;-55.9700;-4.9400
1201.3940;-60.8800;-55.9300;-4.9500
1201.5930;-60.8200;-55.9000;-4.9200
1201.7920;-60.7700;-55.8500;-4.9200
1201.9910;-60.7500;-55.8100;-4.9400
1202.1900;-60.7300;-55.7500;-4.9800
1202.3890;-60.6100;-55.7000;-4.9100
1202.5890;-60.5500;-55.6600;-4.8900
1202.7880;-60.5600;-55.5900;-4.9700
1202.9870;-60.5200;-55.5400;-4.9800
1203.1860;-60.4200;-55.4800;-4.9400
1203.3850;-60.4000;-55.4400;-4.9600
1203.5840;-60.4100;-55.4200;-4.9900
1203.7830;-60.3700;-55.3500;-5.0200
1203.9820;-60.3000;-55.3200;-4.9800
1204.1810;-60.3000;-55.2800;-5.0200
1204.3810;-60.3000;-55.2400;-5.0600
1204.5800;-60.2900;-55.2300;-5.0600
1204.7790;-60.2200;-55.1800;-5.0400
1204.9780;-60.2000;-55.1500;-5.0500
1205.1770;-60.1900;-55.1200;-5.0700
1205.3760;-60.1700;-55.0900;-5.0800
1205.5750;-60.1500;-55.0900;-5.0600
1205.7740;-60.1100;-55.0500;-5.0600
1205.9740;-60.0800;-55.0400;-5.0400
1206.1730;-60.0800;-55.0200;-5.0600
1206.3720;-60.0500;-54.9900;-5.0600
1206.5710;-60.0400;-54.9800;-5.0600
1206.7700;-59.9600;-54.9500;-5.0100
1206.9690;-59.9300;-54.9300;-5.0000
1207.1680;-59.9400;-54.9000;-5.0400
1207.3670;-59.8900;-54.8600;-5.0300
1207.5660;-59.8400;-54.8500;-4.9900
1207.7660;-59.7900;-54.8000;-4.9900
1207.9650;-59.7800;-54.7700;-5.0100
1208.1640;-59.7400;-54.7200;-5.0200
1208.3630;-59.6500;-54.6800;-4.9700
1208.5620;-59.6100;-54.6500;-4.9600
1208.7610;-59.6100;-54.5800;-5.0300
1208.9600;-59.5700;-54.5400;-5.0300
1209.1590;-59.5000;-54.4900;-5.0100
1209.3580;-59.4200;-54.4300;-4.9900
1209.5580;-59.4100;-54.4000;-5.0100
1209.7570;-59.3800;-54.3400;-5.0400
1209.9560;-59.2900;-54.2800;-5.0100
1210.1550;-59.2400;-54.2300;-5.0100
1210.3540;-59.2100;-54.1800;-5.0300
1210.5530;-59.1900;-54.1400;-5.0500
1210.7520;-59.1400;-54.0800;-5.0600
1210.9510;-59.0700;-54.0300;-5.0400
1211.1500;-59.0400;-54.0000;-5.0400
1211.3500;-58.9900;-53.9500;-5.0400
1211.5490;-58.9700;-53.9200;-5.0500
1211.7480;-58.9300;-53.8800;-5.0500
1211.9470;-58.8800;-53.8400;-5.0400
1212.1460;-58.8900;-53.8200;-5.0700
1212.3450;-58.8600;-53.7700;-5.0900
1212.5440;-58.8300;-53.7600;-5.0700
1212.7430;-58.8200;-53.7200;-5.1000
1212.9430;-58.8200;-53.6800;-5.1400
1213.1420;-58.8600;-53.6700;-5.1900
1213.3410;-58.8100;-53.6300;-5.1800
1213.5400;-58.8100;-53.6100;-5.2000
1213.7390;-58.8300;-53.5700;-5.2600
1213.9380;-58.8600;-53.5300;-5.3300
1214.1370;-58.8500;-53.5100;-5.3400
1214.3360;-58.8300;-53.4600;-5.3700
1214.5350;-58.8500;-53.4400;-5.4100
1214.7350;-58.8600;-53.3900;-5.4700
1214.9340;-58.8500;-53.3400;-5.5100
1215.1330;-58.8200;-53.2900;-5.5300
1215.3320;-58.8100;-53.2400;-5.5700
1215.5310;-58.8200;-53.2000;-5.6200
1215.7300;-58.7700;-53.1400;-5.6300
1215.9290;-58.7200;-53.0800;-5.6400
1216.1280;-58.7000;-53.0300;-5.6700
1216.3270;-58.6600;-52.9600;-5.7000
1216.5270;-58.6300;-52.9200;-5.7100
1216.7260;-58.5500;-52.8600;-5.6900
1216.9250;-58.4800;-52.7900;-5.6900
1217.1240;-58.4800;-52.7400;-5.7400
1217.3230;-58.4100;-52.6700;-5.7400
1217.5220;-58.3300;-52.6300;-5.7000
1217.7210;-58.2800;-52.5700;-5.7100
1217.9200;-58.2300;-52.5200;-5.7100
1218.1200;-58.2100;-52.4800;-5.7300
1218.3190;-58.1000;-52.4200;-5.6800
1218.5180;-58.0500;-52.3900;-5.6600
1218.7170;-58.0200;-52.3400;-5.6800
1218.9160;-57.9700;-52.2900;-5.6800
1219.1150;-57.9100;-52.2600;-5.6500
1219.3140;-57.8400;-52.2100;-5.6300
1219.5130;-57.8200;-52.1900;-5.6300
1219.7120;-57.7700;-52.1500;-5.6200
1219.9120;-57.7000;-52.1100;-5.5900
1220.1110;-57.6400;-52.0700;-5.5700
1220.3100;-57.5900;-52.0300;-5.5600
1220.5090;-57.5500;-52.0000;-5.5500
1220.7080;-57.4800;-51.9500;-5.5300
1220.9070;-57.3800;-51.9100;-5.4700
1221.1060;-57.3200;-51.8500;-5.4700
1221.3050;-57.2700;-51.8000;-5.4700
1221.5040;-57.1700;-51.7500;-5.4200
1221.7040;-57.0700;-51.6800;-5.3900
1221.9030;-57.0000;-51.6300;-5.3700
1222.1020;-56.9300;-51.5700;-5.3600
1222.3010;-56.8200;-51.5000;-5.3200
1222.5000;-56.7200;-51.4300;-5.2900
1222.6990;-56.6300;-51.3600;-5.2700
1222.8980;-56.5500;-51.2900;-5.2600
1223.0970;-56.4500;-51.2200;-5.2300
1223.2970;-56.3500;-51.1500;-5.2000
1223.4960;-56.2700;-51.0800;-5.1900
1223.6950;-56.1900;-51.0000;-5.1900
1223.8940;-56.1100;-50.9400;-5.1700
1224.0930;-56.0200;-50.8700;-5.1500
1224.2920;-55.9400;-50.8000;-5.1400
1224.4910;-55.8900;-50.7400;-5.1500
1224.6900;-55.8100;-50.6700;-5.1400
1224.8890;-55.7400;-50.6000;-5.1400
1225.0890;-55.7000;-50.5500;-5.1500
1225.2880;-55.6700;-50.4800;-5.1900
1225.4870;-55.6200;-50.4300;-5.1900
1225.6860;-55.5700;-50.3700;-5.2000
1225.8850;-55.5500;-50.3200;-5.2300
1226.0840;-55.5300;-50.2700;-5.2600
1226.2830;-55.5000;-50.2100;-5.2900
1226.4820;-55.4700;-50.1600;-5.3100
1226.6810;-55.4400;-50.1100;-5.3300
1226.8810;-55.4300;-50.0600;-5.3700
1227.0800;-55.4000;-50.0000;-5.4000
1227.2790;-55.3600;-49.9500;-5.4100
1227.4780;-55.3500;-49.8900;-5.4600
1227.6770;-55.3300;-49.8300;-5.5000
1227.8760;-55.2900;-49.7700;-5.5200
1228.0750;-55.2500;-49.7100;-5.5400
1228.2740;-55.2300;-49.6400;-5.5900
1228.4740;-55.2100;-49.5700;-5.6400
1228.6730;-55.1600;-49.4900;-5.6700
1228.8720;-55.1200;-49.4200;-5.7000
1229.0710;-55.1000;-49.3500;-5.7500
1229.2700;-55.0900;-49.2600;-5.8300
1229.4690;-55.0500;-49.1900;-5.8600
1229.6680;-55.0100;-49.1000;-5.9100
1229.8670;-54.9900;-49.0100;-5.9800
1230.0660;-54.9900;-48.9500;-6.0400
1230.2660;-54.9600;-48.8500;-6.1100
1230.4650;-54.9400;-48.7700;-6.1700
1230.6640;-54.9200;-48.6900;-6.2300
1230.8630;-54.9300;-48.6200;-6.3100
1231.0620;-54.9300;-48.5500;-6.3800
1231.2610;-54.9200;-48.4800;-6.4400
1231.4600;-54.9500;-48.4300;-6.5200
1231.6590;-54.9400;-48.3500;-6.5900
1231.8580;-54.9100;-48.2800;-6.6300
1232.0580;-54.9200;-48.2300;-6.6900
1232.2570;-54.9100;-48.1600;-6.7500
1232.4560;-54.9000;-48.1200;-6.7800
1232.6550;-54.8600;-48.0400;-6.8200
1232.8540;-54.8300;-47.9800;-6.8500
1233.0530;-54.8200;-47.9300;-6.8900
1233.2520;-54.7700;-47.8600;-6.9100
1233.4510;-54.7200;-47.8100;-6.9100
1233.6500;-54.6700;-47.7400;-6.9300
1233.8500;-54.6200;-47.6800;-6.9400
1234.0490;-54.5500;-47.6200;-6.9300
1234.2480;-54.4700;-47.5400;-6.9300
1234.4470;-54.4100;-47.4800;-6.9300
1234.6460;-54.3200;-47.4000;-6.9200
1234.8450;-54.2400;-47.3300;-6.9100
1235.0440;-54.1500;-47.2400;-6.9100
1235.2430;-54.0500;-47.1600;-6.8900
1235.4430;-53.9600;-47.0800;-6.8800
1235.6420;-53.8400;-46.9800;-6.8600
1235.8410;-53.7200;-46.9000;-6.8200
1236.0400;-53.6300;-46.8100;-6.8200
1236.2390;-53.5000;-46.7100;-6.7900
1236.4380;-53.3800;-46.6200;-6.7600
1236.6370;-53.2600;-46.5300;-6.7300
1236.8360;-53.1300;-46.4400;-6.6900
1237.0350;-53.0200;-46.3400;-6.6800
1237.2350;-52.8800;-46.2500;-6.6300
1237.4340;-52.7600;-46.1600;-6.6000
1237.6330;-52.6300;-46.0700;-6.5600
1237.8320;-52.5100;-46.0000;-6.5100
1238.0310;-52.3800;-45.8900;-6.4900
1238.2300;-52.2600;-45.8300;-6.4300
1238.4290;-52.1500;-45.7300;-6.4200
1238.6280;-52.0200;-45.6600;-6.3600
1238.8270;-51.9000;-45.5800;-6.3200
1239.0270;-51.8000;-45.5000;-6.3000
1239.2260;-51.6800;-45.4200;-6.2600
1239.4250;-51.5800;-45.3300;-6.2500
1239.6240;-51.4600;-45.2500;-6.2100
1239.8230;-51.3600;-45.1600;-6.2000
1240.0220;-51.2600;-45.0700;-6.1900
1240.2210;-51.1400;-44.9900;-6.1500
1240.4200;-51.0400;-44.8800;-6.1600
1240.6200;-50.9300;-44.8000;-6.1300
1240.8190;-50.8300;-44.6900;-6.1400
1241.0180;-50.6900;-44.5700;-6.1200
1241.2170;-50.5600;-44.4700;-6.0900
1241.4160;-50.4500;-44.3500;-6.1000
1241.6150;-50.3000;-44.2300;-6.0700
1241.8140;-50.1600;-44.1100;-6.0500
1242.0130;-50.0200;-43.9900;-6.0300
1242.2120;-49.8700;-43.8800;-5.9900
1242.4120;-49.7200;-43.7400;-5.9800
1242.6110;-49.5500;-43.6100;-5.9400
1242.8100;-49.3900;-43.4900;-5.9000
1243.0090;-49.2100;-43.3500;-5.8600
1243.2080;-49.0400;-43.2300;-5.8100
1243.4070;-48.8700;-43.0900;-5.7800
1243.6060;-48.6900;-42.9700;-5.7200
1243.8050;-48.5200;-42.8400;-5.6800
1244.0040;-48.3200;-42.7100;-5.6100
1244.2040;-48.1400;-42.6000;-5.5400
1244.4030;-47.9800;-42.4600;-5.5200
1244.6020;-47.7800;-42.3400;-5.4400
1244.8010;-47.6100;-42.2200;-5.3900
1245.0000;-47.4200;-42.0900;-5.3300
1245.1990;-47.2300;-41.9900;-5.2400
1245.3980;-47.0600;-41.8600;-5.2000
1245.5970;-46.8500;-41.7300;-5.1200
1245.7970;-46.6700;-41.6100;-5.0600
1245.9960;-46.4600;-41.4800;-4.9800
1246.1950;-46.2700;-41.3600;-4.9100
1246.3940;-46.0800;-41.2300;-4.8500
1246.5930;-45.8300;-41.0900;-4.7400
1246.7920;-45.6700;-40.9600;-4.7100
1246.9910;-45.4500;-40.8100;-4.6400
1247.1900;-45.2600;-40.6900;-4.5700
1247.3890;-45.0400;-40.5400;-4.5000
1247.5890;-44.8300;-40.3900;-4.4400
1247.7880;-44.6300;-40.2500;-4.3800
1247.9870;-44.4200;-40.0900;-4.3300
1248.1860;-44.2200;-39.9500;-4.2700
1248.3850;-44.0200;-39.7900;-4.2300
1248.5840;-43.8200;-39.6300;-4.1900
1248.7830;-43.6500;-39.4900;-4.1600
1248.9820;-43.4600;-39.3300;-4.1300
1249.1810;-43.3000;-39.1900;-4.1100
1249.3810;-43.1300;-39.0300;-4.1000
1249.5800;-42.9600;-38.8700;-4.0900
1249.7790;-42.8200;-38.7300;-4.0900
1249.9780;-42.6600;-38.5600;-4.1000
1250.1770;-42.5300;-38.4300;-4.1000
1250.3760;-42.3900;-38.2700;-4.1200
1250.5750;-42.2500;-38.1200;-4.1300
1250.7740;-42.1400;-37.9800;-4.1600
1250.9740;-42.0300;-37.8500;-4.1800
1251.1730;-41.9300;-37.7200;-4.2100
1251.3720;-41.8200;-37.5600;-4.2600
1251.5710;-41.7300;-37.4400;-4.2900
1251.7700;-41.6500;-37.2900;-4.3600
1251.9690;-41.5600;-37.1500;-4.4100
1252.1680;-41.4900;-37.0100;-4.4800
1252.3670;-41.4200;-36.8600;-4.5600
1252.5660;-41.3700;-36.7300;-4.6400
1252.7660;-41.3200;-36.5700;-4.7500
1252.9650;-41.2800;-36.4300;-4.8500
1253.1640;-41.2500;-36.2900;-4.9600
1253.3630;-41.2100;-36.1200;-5.0900
1253.5620;-41.1900;-35.9900;-5.2000
1253.7610;-41.1800;-35.8000;-5.3800
1253.9600;-41.1700;-35.6800;-5.4900
1254.1590;-41.1700;-35.5100;-5.6600
1254.3580;-41.1400;-35.3500;-5.7900
1254.5580;-41.1300;-35.2100;-5.9200
1254.7570;-41.1000;-35.0400;-6.0600
1254.9560;-41.0600;-34.8900;-6.1700
1255.1550;-41.0300;-34.7300;-6.3000
1255.3540;-40.9600;-34.5700;-6.3900
1255.5530;-40.8900;-34.4300;-6.4600
1255.7520;-40.8000;-34.2700;-6.5300
1255.9510;-40.6800;-34.1300;-6.5500
1256.1500;-40.5700;-33.9700;-6.6000
1256.3500;-40.4100;-33.8400;-6.5700
1256.5490;-40.2500;-33.7100;-6.5400
1256.7480;-40.0700;-33.5600;-6.5100
1256.9470;-39.8600;-33.4300;-6.4300
1257.1460;-39.6600;-33.2900;-6.3700
1257.3450;-39.4200;-33.1500;-6.2700
1257.5440;-39.2000;-33.0300;-6.1700
1257.7430;-38.9400;-32.8800;-6.0600
1257.9430;-38.6700;-32.7500;-5.9200
1258.1420;-38.4100;-32.6100;-5.8000
1258.3410;-38.1100;-32.4700;-5.6400
1258.5400;-37.8200;-32.3500;-5.4700
1258.7390;-37.5000;-32.2000;-5.3000
1258.9380;-37.1700;-32.0700;-5.1000
1259.1370;-36.8600;-31.9200;-4.9400
1259.3360;-36.5200;-31.7800;-4.7400
1259.5350;-36.2000;-31.6400;-4.5600
1259.7350;-35.7900;-31.4900;-4.3000
1259.9340;-35.5300;-31.3500;-4.1800
1260.1330;-35.1900;-31.2000;-3.9900
1260.3320;-34.8600;-31.0600;-3.8000
1260.5310;-34.5500;-30.9200;-3.6300
1260.7300;-34.2300;-30.7700;-3.4600
1260.9290;-33.9300;-30.6400;-3.2900
1261.1280;-33.6300;-30.4900;-3.1400
1261.3270;-33.3400;-30.3600;-2.9800
1261.5270;-33.0800;-30.2300;-2.8500
1261.7260;-32.8100;-30.1000;-2.7100
1261.9250;-32.5700;-29.9700;-2.6000
1262.1240;-32.3200;-29.8300;-2.4900
1262.3230;-32.0900;-29.7100;-2.3800
1262.5220;-31.8900;-29.5900;-2.3000
1262.7210;-31.6700;-29.4600;-2.2100
1262.9200;-31.4900;-29.3500;-2.1400
1263.1200;-31.2900;-29.2200;-2.0700
1263.3190;-31.1200;-29.1000;-2.0200
1263.5180;-30.9600;-28.9800;-1.9800
1263.7170;-30.8100;-28.8600;-1.9500
1263.9160;-30.6800;-28.7400;-1.9400
1264.1150;-30.5300;-28.6000;-1.9300
1264.3140;-30.4100;-28.4800;-1.9300
1264.5130;-30.3100;-28.3500;-1.9600
1264.7120;-30.2000;-28.2200;-1.9800
1264.9120;-30.1300;-28.1000;-2.0300
1265.1110;-30.0300;-27.9600;-2.0700
1265.3100;-29.9700;-27.8300;-2.1400
1265.5090;-29.9200;-27.7000;-2.2200
1265.7080;-29.8600;-27.5700;-2.2900
1265.9070;-29.8400;-27.4400;-2.4000
1266.1060;-29.7900;-27.3000;-2.4900
1266.3050;-29.7800;-27.1800;-2.6000
1266.5040;-29.7700;-27.0500;-2.7200
1266.7040;-29.7700;-26.9300;-2.8400
1266.9030;-29.7800;-26.8000;-2.9800
1267.1020;-29.7800;-26.6700;-3.1100
1267.3010;-29.7900;-26.5600;-3.2300
1267.5000;-29.8100;-26.4300;-3.3800
1267.6990;-29.8300;-26.3200;-3.5100
1267.8980;-29.8600;-26.2000;-3.6600
1268.0970;-29.8800;-26.0700;-3.8100
1268.2970;-29.9100;-25.9700;-3.9400
1268.4960;-29.9300;-25.8600;-4.0700
1268.6950;-29.9400;-25.7500;-4.1900
1268.8940;-29.9500;-25.6200;-4.3300
1269.0930;-29.9400;-25.5100;-4.4300
1269.2920;-29.9200;-25.3900;-4.5300
1269.4910;-29.9000;-25.2800;-4.6200
1269.6900;-29.8500;-25.1700;-4.6800
1269.8890;-29.7900;-25.0400;-4.7500
1270.0890;-29.7000;-24.9200;-4.7800
1270.2880;-29.5900;-24.8000;-4.7900
1270.4870;-29.4600;-24.6900;-4.7700
1270.6860;-29.3000;-24.5700;-4.7300
1270.8850;-29.1200;-24.4400;-4.6800
1271.0840;-28.9000;-24.3200;-4.5800
1271.2830;-28.6800;-24.2000;-4.4800
1271.4820;-28.4200;-24.0800;-4.3400
1271.6810;-28.1500;-23.9700;-4.1800
1271.8810;-27.8800;-23.8300;-4.0500
1272.0800;-27.5900;-23.7300;-3.8600
1272.2790;-27.3100;-23.6100;-3.7000
1272.4780;-27.0200;-23.4900;-3.5300
1272.6770;-26.7300;-23.3900;-3.3400
1272.8760;-26.4500;-23.2700;-3.1800
1273.0750;-26.1600;-23.1700;-2.9900
1273.2740;-25.8400;-23.0600;-2.7800
1273.4740;-25.6100;-22.9500;-2.6600
1273.6730;-25.3600;-22.8600;-2.5000
1273.8720;-25.0900;-22.7500;-2.3400
1274.0710;-24.8300;-22.6600;-2.1700
1274.2700;-24.5900;-22.5500;-2.0400
1274.4690;-24.3400;-22.4500;-1.8900
1274.6680;-24.1200;-22.3600;-1.7600
1274.8670;-23.8800;-22.2500;-1.6300
1275.0660;-23.6600;-22.1700;-1.4900
1275.2660;-23.4400;-22.0600;-1.3800
1275.4650;-23.2300;-21.9600;-1.2700
1275.6640;-23.0500;-21.8700;-1.1800
1275.8630;-22.8500;-21.7700;-1.0800
1276.0620;-22.6700;-21.6800;-0.9900
1276.2610;-22.4900;-21.5800;-0.9100
1276.4600;-22.3300;-21.4800;-0.8500
1276.6590;-22.1700;-21.3800;-0.7900
1276.8580;-22.0300;-21.2800;-0.7500
1277.0580;-21.9000;-21.2000;-0.7000
1277.2570;-21.7700;-21.0900;-0.6800
1277.4560;-21.6600;-21.0100;-0.6500
1277.6550;-21.5700;-20.9200;-0.6500
1277.8540;-21.4800;-20.8300;-0.6500
1278.0530;-21.4100;-20.7500;-0.6600
1278.2520;-21.3400;-20.6600;-0.6800
1278.4510;-21.2700;-20.5800;-0.6900
1278.6500;-21.2300;-20.4900;-0.7400
1278.8500;-21.1800;-20.4100;-0.7700
1279.0490;-21.1600;-20.3400;-0.8200
1279.2480;-21.1300;-20.2500;-0.8800
1279.4470;-21.1100;-20.1900;-0.9200
1279.6460;-21.1000;-20.1000;-1.0000
1279.8450;-21.1000;-20.0200;-1.0800
1280.0440;-21.1100;-19.9500;-1.1600
1280.2430;-21.1100;-19.8700;-1.2400
1280.4430;-21.1300;-19.8100;-1.3200
1280.6420;-21.1600;-19.7200;-1.4400
1280.8410;-21.1800;-19.6400;-1.5400
1281.0400;-21.2300;-19.5700;-1.6600
1281.2390;-21.2700;-19.4900;-1.7800
1281.4380;-21.3100;-19.4200;-1.8900
1281.6370;-21.3600;-19.3300;-2.0300
1281.8360;-21.4100;-19.2500;-2.1600
1282.0350;-21.4700;-19.1700;-2.3000
1282.2350;-21.5100;-19.0800;-2.4300
1282.4340;-21.5700;-19.0200;-2.5500
1282.6330;-21.6200;-18.9400;-2.6800
1282.8320;-21.6600;-18.8600;-2.8000
1283.0310;-21.7000;-18.7800;-2.9200
1283.2300;-21.7200;-18.7000;-3.0200
1283.4290;-21.7400;-18.6400;-3.1000
1283.6280;-21.7300;-18.5500;-3.1800
1283.8270;-21.7100;-18.4900;-3.2200
1284.0270;-21.7000;-18.4100;-3.2900
1284.2260;-21.6500;-18.3300;-3.3200
1284.4250;-21.6100;-18.2800;-3.3300
1284.6240;-21.5200;-18.2000;-3.3200
1284.8230;-21.4300;-18.1300;-3.3000
1285.0220;-21.3300;-18.0500;-3.2800
1285.2210;-21.2000;-17.9800;-3.2200
1285.4200;-21.0700;-17.9200;-3.1500
1285.6200;-20.9100;-17.8400;-3.0700
1285.8190;-20.7500;-17.7800;-2.9700
1286.0180;-20.5800;-17.7000;-2.8800
1286.2170;-20.3900;-17.6300;-2.7600
1286.4160;-20.2100;-17.5700;-2.6400
1286.6150;-20.0000;-17.5000;-2.5000
1286.8140;-19.8000;-17.4400;-2.3600
1287.0130;-19.5900;-17.3600;-2.2300
1287.2120;-19.3800;-17.2900;-2.0900
1287.4120;-19.1900;-17.2200;-1.9700
1287.6110;-18.9700;-17.1500;-1.8200
1287.8100;-18.7800;-17.1000;-1.6800
1288.0090;-18.5800;-17.0200;-1.5600
1288.2080;-18.3800;-16.9600;-1.4200
1288.4070;-18.2100;-16.9000;-1.3100
1288.6060;-18.0200;-16.8300;-1.1900
1288.8050;-17.8600;-16.7800;-1.0800
1289.0040;-17.6900;-16.7100;-0.9800
1289.2040;-17.5400;-16.6600;-0.8800
1289.4030;-17.4000;-16.6000;-0.8000
1289.6020;-17.2600;-16.5500;-0.7100
1289.8010;-17.1400;-16.5000;-0.6400
1290.0000;-17.0100;-16.4300;-0.5800
1290.1990;-16.9000;-16.3900;-0.5100
1290.3980;-16.8000;-16.3300;-0.4700
1290.5970;-16.7200;-16.2900;-0.4300
1290.7970;-16.6400;-16.2500;-0.3900
1290.9960;-16.5500;-16.1800;-0.3700
1291.1950;-16.4800;-16.1400;-0.3400
1291.3940;-16.4200;-16.0800;-0.3400
1291.5930;-16.3600;-16.0400;-0.3200
1291.7920;-16.3400;-15.9800;-0.3600
1291.9910;-16.2900;-15.9400;-0.3500
1292.1900;-16.2800;-15.8900;-0.3900
1292.3890;-16.2600;-15.8500;-0.4100
1292.5890;-16.2400;-15.8000;-0.4400
1292.7880;-16.2500;-15.7500;-0.5000
1292.9870;-16.2500;-15.7100;-0.5400
1293.1860;-16.2800;-15.6600;-0.6200
1293.3850;-16.3000;-15.6200;-0.6800
1293.5840;-16.3200;-15.5800;-0.7400
1293.7830;-16.3600;-15.5300;-0.8300
1293.9820;-16.3900;-15.5000;-0.8900
1294.1810;-16.4500;-15.4500;-1.0000
1294.3810;-16.4900;-15.4200;-1.0700
1294.5800;-16.5400;-15.3800;-1.1600
1294.7790;-16.5900;-15.3400;-1.2500
1294.9780;-16.6400;-15.3100;-1.3300
1295.1770;-16.7100;-15.2700;-1.4400
1295.3760;-16.7600;-15.2400;-1.5200
1295.5750;-16.8100;-15.2000;-1.6100
1295.7740;-16.8600;-15.1600;-1.7000
1295.9740;-16.8900;-15.1300;-1.7600
1296.1730;-16.9500;-15.0800;-1.8700
1296.3720;-16.9800;-15.0600;-1.9200
1296.5710;-17.0100;-15.0200;-1.9900
1296.7700;-17.0300;-14.9800;-2.0500
1296.9690;-17.0500;-14.9600;-2.0900
1297.1680;-17.0700;-14.9300;-2.1400
1297.3670;-17.0700;-14.9000;-2.1700
1297.5660;-17.0700;-14.8500;-2.2200
1297.7660;-17.0500;-14.8200;-2.2300
1297.9650;-17.0300;-14.8000;-2.2300
1298.1640;-17.0000;-14.7600;-2.2400
1298.3630;-16.9700;-14.7400;-2.2300
1298.5620;-16.9300;-14.7000;-2.2300
1298.7610;-16.8700;-14.6700;-2.2000
1298.9600;-16.8300;-14.6500;-2.1800
1299.1590;-16.7700;-14.6200;-2.1500
1299.3580;-16.7100;-14.6000;-2.1100
1299.5580;-16.6500;-14.5600;-2.0900
1299.7570;-16.5800;-14.5400;-2.0400
1299.9560;-16.5300;-14.5200;-2.0100
1300.1550;-16.4500;-14.4900;-1.9600
1300.3540;-16.4000;-14.4800;-1.9200
1300.5530;-16.3200;-14.4300;-1.8900
1300.7520;-16.2600;-14.4100;-1.8500
1300.9510;-16.2200;-14.3900;-1.8300
1301.1500;-16.1600;-14.3800;-1.7800
1301.3500;-16.1200;-14.3700;-1.7500
1301.5490;-16.0800;-14.3500;-1.7300
1301.7480;-16.0600;-14.3400;-1.7200
1301.9470;-16.0200;-14.3200;-1.7000
1302.1460;-16.0100;-14.3100;-1.7000
1302.3450;-16.0000;-14.3000;-1.7000
1302.5440;-16.0000;-14.2800;-1.7200
1302.7430;-16.0100;-14.2800;-1.7300
1302.9430;-16.0200;-14.2600;-1.7600
1303.1420;-16.0600;-14.2500;-1.8100
1303.3410;-16.1000;-14.2400;-1.8600
1303.5400;-16.1600;-14.2400;-1.9200
1303.7390;-16.2300;-14.2400;-1.9900
1303.9380;-16.2900;-14.2100;-2.0800
1304.1370;-16.3900;-14.2200;-2.1700
1304.3360;-16.4900;-14.2100;-2.2800
1304.5350;-16.6100;-14.2100;-2.4000
1304.7350;-16.7500;-14.2200;-2.5300
1304.9340;-16.8800;-14.2100;-2.6700
1305.1330;-17.0400;-14.2200;-2.8200
1305.3320;-17.2000;-14.2100;-2.9900
1305.5310;-17.3800;-14.2200;-3.1600
1305.7300;-17.5900;-14.2300;-3.3600
1305.9290;-17.7800;-14.2200;-3.5600
1306.1280;-18.0200;-14.2400;-3.7800
1306.3270;-18.3100;-14.2400;-4.0700
1306.5270;-18.5400;-14.2500;-4.2900
1306.7260;-18.8100;-14.2600;-4.5500
1306.9250;-19.0900;-14.2600;-4.8300
1307.1240;-19.4200;-14.2800;-5.1400
1307.3230;-19.7300;-14.2800;-5.4500
1307.5220;-20.0900;-14.3000;-5.7900
1307.7210;-20.4300;-14.3100;-6.1200
1307.9200;-20.7900;-14.3100;-6.4800
1308.1200;-21.1700;-14.3500;-6.8200
1308.3190;-21.5300;-14.3500;-7.1800
1308.5180;-21.9100;-14.3700;-7.5400
1308.7170;-22.2400;-14.3800;-7.8600
1308.9160;-22.5700;-14.3900;-8.1800
1309.1150;-22.8800;-14.4300;-8.4500
1309.3140;-23.1300;-14.4300;-8.7000
1309.5130;-23.3600;-14.4700;-8.8900
1309.7120;-23.4900;-14.4800;-9.0100
1309.9120;-23.5800;-14.5000;-9.0800
1310.1110;-23.6000;-14.5400;-9.0600
