Wavelength;Intensity_Meas;Intensity_Ref;Difference_dB
1200.0000;-60.9900;-56.1700;-4.8200
1200.1990;-60.9400;-56.1300;-4.8100
1200.3980;-60.9100;-56.1000;-4.8100
1200.5970;-60.9000;-56.0800;-4.8200
1200.7970;-60.8600;-56.0500;-4.8100
1200.9960;-60.8100;-56.0200;-4.7900
1201.1950;-60.7900;-55.9700;-4.8200
1201.3940;-60.7500;-55.9300;-4.8200
1201.5930;-60.6600;-55.9000;-4.7600
1201.7920;-60.6300;-55.8500;-4.7800
1201.9910;-60.6300;-55.8100;-4.8200
1202.1900;-60.6000;-55.7500;-4.8500
1202.3890;-60.4600;-55.7000;-4.7600
1202.5890;-60.4100;-55.6600;-4.7500
1202.7880;-60.4200;-55.5900;-4.8300
1202.9870;-60.4100;-55.5400;-4.8700
1203.1860;-60.3200;-55.4800;-4.8400
1203.3850;-60.2500;-55.4400;-4.8100
1203.5840;-60.3000;-55.4200;-4.8800
1203.7830;-60.2900;-55.3500;-4.9400
1203.9820;-60.2300;-55.3200;-4.9100
1204.1810;-60.2300;-55.2800;-4.9500
1204.3810;-60.2100;-55.2400;-4.9700
1204.5800;-60.2000;-55.2300;-4.9700
1204.7790;-60.1600;-55.1800;-4.9800
1204.9780;-60.1700;-55.1500;-5.0200
1205.1770;-60.1800;-55.1200;-5.0600
1205.3760;-60.1500;-55.0900;-5.0600
1205.5750;-60.1300;-55.0900;-5.0400
1205.7740;-60.1300;-55.0500;-5.0800
1205.9740;-60.1300;-55.0400;-5.0900
1206.1730;-60.1300;-55.0200;-5.1100
1206.3720;-60.1300;-54.9900;-5.1400
1206.5710;-60.1000;-54.9800;-5.1200
1206.7700;-60.0500;-54.9500;-5.1000
1206.9690;-60.0400;-54.9300;-5.1100
1207.1680;-60.0400;-54.9000;-5.1400
1207.3670;-59.9800;-54.8600;-5.1200
1207.5660;-59.9400;-54.8500;-5.0900
1207.7660;-59.9300;-54.8000;-5.1300
1207.9650;-59.9300;-54.7700;-5.1600
1208.1640;-59.9000;-54.7200;-5.1800
1208.3630;-59.8400;-54.6800;-5.1600
1208.5620;-59.8000;-54.6500;-5.1500
1208.7610;-59.8000;-54.5800;-5.2200
1208.9600;-59.7800;-54.5400;-5.2400
1209.1590;-59.7100;-54.4900;-5.2200
1209.3580;-59.6500;-54.4300;-5.2200
1209.5580;-59.6500;-54.4000;-5.2500
1209.7570;-59.6300;-54.3400;-5.2900
1209.9560;-59.5500;-54.2800;-5.2700
1210.1550;-59.4900;-54.2300;-5.2600
1210.3540;-59.4700;-54.1800;-5.2900
1210.5530;-59.4700;-54.1400;-5.3300
1210.7520;-59.4200;-54.0800;-5.3400
1210.9510;-59.3200;-54.0300;-5.2900
1211.1500;-59.3300;-54.0000;-5.3300
1211.3500;-59.2900;-53.9500;-5.3400
1211.5490;-59.2500;-53.9200;-5.3300
1211.7480;-59.2200;-53.8800;-5.3400
1211.9470;-59.1800;-53.8400;-5.3400
1212.1460;-59.1800;-53.8200;-5.3600
1212.3450;-59.1400;-53.7700;-5.3700
1212.5440;-59.1300;-53.7600;-5.3700
1212.7430;-59.1200;-53.7200;-5.4000
1212.9430;-59.1200;-53.6800;-5.4400
1213.1420;-59.1400;-53.6700;-5.4700
1213.3410;-59.1300;-53.6300;-5.5000
1213.5400;-59.1000;-53.6100;-5.4900
1213.7390;-59.1400;-53.5700;-5.5700
1213.9380;-59.1600;-53.5300;-5.6300
1214.1370;-59.1500;-53.5100;-5.6400
1214.3360;-59.1100;-53.4600;-5.6500
1214.5350;-59.1700;-53.4400;-5.7300
1214.7350;-59.2000;-53.3900;-5.8100
1214.9340;-59.1400;-53.3400;-5.8000
1215.1330;-59.1200;-53.2900;-5.8300
1215.3320;-59.1100;-53.2400;-5.8700
1215.5310;-59.1300;-53.2000;-5.9300
1215.7300;-59.0900;-53.1400;-5.9500
1215.9290;-59.0300;-53.0800;-5.9500
1216.1280;-59.0000;-53.0300;-5.9700
1216.3270;-59.0000;-52.9600;-6.0400
1216.5270;-58.9600;-52.9200;-6.0400
1216.7260;-58.8900;-52.8600;-6.0300
1216.9250;-58.8300;-52.7900;-6.0400
1217.1240;-58.7900;-52.7400;-6.0500
1217.3230;-58.7400;-52.6700;-6.0700
1217.5220;-58.6700;-52.6300;-6.0400
1217.7210;-58.6400;-52.5700;-6.0700
1217.9200;-58.6100;-52.5200;-6.0900
1218.1200;-58.5700;-52.4800;-6.0900
1218.3190;-58.4900;-52.4200;-6.0700
1218.5180;-58.4300;-52.3900;-6.0400
1218.7170;-58.4100;-52.3400;-6.0700
1218.9160;-58.3700;-52.2900;-6.0800
1219.1150;-58.3000;-52.2600;-6.0400
1219.3140;-58.2300;-52.2100;-6.0200
1219.5130;-58.2000;-52.1900;-6.0100
1219.7120;-58.1800;-52.1500;-6.0300
1219.9120;-58.0900;-52.1100;-5.9800
1220.1110;-58.0200;-52.0700;-5.9500
1220.3100;-57.9700;-52.0300;-5.9400
1220.5090;-57.9100;-52.0000;-5.9100
1220.7080;-57.8400;-51.9500;-5.8900
1220.9070;-57.7500;-51.9100;-5.8400
1221.1060;-57.6700;-51.8500;-5.8200
1221.3050;-57.6100;-51.8000;-5.8100
1221.5040;-57.4900;-51.7500;-5.7400
1221.7040;-57.3900;-51.6800;-5.7100
1221.9030;-57.2900;-51.6300;-5.6600
1222.1020;-57.2100;-51.5700;-5.6400
1222.3010;-57.0900;-51.5000;-5.5900
1222.5000;-56.9700;-51.4300;-5.5400
1222.6990;-56.8800;-51.3600;-5.5200
1222.8980;-56.7800;-51.2900;-5.4900
1223.0970;-56.6500;-51.2200;-5.4300
1223.2970;-56.5300;-51.1500;-5.3800
1223.4960;-56.4100;-51.0800;-5.3300
1223.6950;-56.3300;-51.0000;-5.3300
1223.8940;-56.2300;-50.9400;-5.2900
1224.0930;-56.1100;-50.8700;-5.2400
1224.2920;-56.0000;-50.8000;-5.2000
1224.4910;-55.9300;-50.7400;-5.1900
1224.6900;-55.8200;-50.6700;-5.1500
1224.8890;-55.7100;-50.6000;-5.1100
1225.0890;-55.6700;-50.5500;-5.1200
1225.2880;-55.5900;-50.4800;-5.1100
1225.4870;-55.5100;-50.4300;-5.0800
1225.6860;-55.4400;-50.3700;-5.0700
1225.8850;-55.3800;-50.3200;-5.0600
1226.0840;-55.3400;-50.2700;-5.0700
1226.2830;-55.2700;-50.2100;-5.0600
1226.4820;-55.1900;-50.1600;-5.0300
1226.6810;-55.1500;-50.1100;-5.0400
1226.8810;-55.1100;-50.0600;-5.0500
1227.0800;-55.0500;-50.0000;-5.0500
1227.2790;-54.9700;-49.9500;-5.0200
1227.4780;-54.9300;-49.8900;-5.0400
1227.6770;-54.8800;-49.8300;-5.0500
1227.8760;-54.8100;-49.7700;-5.0400
1228.0750;-54.7400;-49.7100;-5.0300
1228.2740;-54.6900;-49.6400;-5.0500
1228.4740;-54.6300;-49.5700;-5.0600
1228.6730;-54.5700;-49.4900;-5.0800
1228.8720;-54.5100;-49.4200;-5.0900
1229.0710;-54.4700;-49.3500;-5.1200
1229.2700;-54.4200;-49.2600;-5.1600
1229.4690;-54.3400;-49.1900;-5.1500
1229.6680;-54.3100;-49.1000;-5.2100
1229.8670;-54.2700;-49.0100;-5.2600
1230.0660;-54.2500;-48.9500;-5.3000
1230.2660;-54.2000;-48.8500;-5.3500
1230.4650;-54.1600;-48.7700;-5.3900
1230.6640;-54.1500;-48.6900;-5.4600
1230.8630;-54.1500;-48.6200;-5.5300
1231.0620;-54.1500;-48.5500;-5.6000
1231.2610;-54.1400;-48.4800;-5.6600
1231.4600;-54.1600;-48.4300;-5.7300
1231.6590;-54.1700;-48.3500;-5.8200
1231.8580;-54.1600;-48.2800;-5.8800
1232.0580;-54.1800;-48.2300;-5.9500
1232.2570;-54.1900;-48.1600;-6.0300
1232.4560;-54.2100;-48.1200;-6.0900
1232.6550;-54.2100;-48.0400;-6.1700
1232.8540;-54.2000;-47.9800;-6.2200
1233.0530;-54.2200;-47.9300;-6.2900
1233.2520;-54.2000;-47.8600;-6.3400
1233.4510;-54.1900;-47.8100;-6.3800
1233.6500;-54.1800;-47.7400;-6.4400
1233.8500;-54.1700;-47.6800;-6.4900
1234.0490;-54.1500;-47.6200;-6.5300
1234.2480;-54.1100;-47.5400;-6.5700
1234.4470;-54.0700;-47.4800;-6.5900
1234.6460;-54.0400;-47.4000;-6.6400
1234.8450;-53.9900;-47.3300;-6.6600
1235.0440;-53.9400;-47.2400;-6.7000
1235.2430;-53.8900;-47.1600;-6.7300
1235.4430;-53.8200;-47.0800;-6.7400
1235.6420;-53.7500;-46.9800;-6.7700
1235.8410;-53.6800;-46.9000;-6.7800
1236.0400;-53.6100;-46.8100;-6.8000
1236.2390;-53.5200;-46.7100;-6.8100
1236.4380;-53.4200;-46.6200;-6.8000
1236.6370;-53.3300;-46.5300;-6.8000
1236.8360;-53.2400;-46.4400;-6.8000
1237.0350;-53.1600;-46.3400;-6.8200
1237.2350;-53.0300;-46.2500;-6.7800
1237.4340;-52.9200;-46.1600;-6.7600
1237.6330;-52.8200;-46.0700;-6.7500
1237.8320;-52.7100;-46.0000;-6.7100
1238.0310;-52.6000;-45.8900;-6.7100
1238.2300;-52.4800;-45.8300;-6.6500
1238.4290;-52.3700;-45.7300;-6.6400
1238.6280;-52.2600;-45.6600;-6.6000
1238.8270;-52.1300;-45.5800;-6.5500
1239.0270;-52.0300;-45.5000;-6.5300
1239.2260;-51.9100;-45.4200;-6.4900
1239.4250;-51.7900;-45.3300;-6.4600
1239.6240;-51.6800;-45.2500;-6.4300
1239.8230;-51.5500;-45.1600;-6.3900
1240.0220;-51.4600;-45.0700;-6.3900
1240.2210;-51.3300;-44.9900;-6.3400
1240.4200;-51.2100;-44.8800;-6.3300
1240.6200;-51.1000;-44.8000;-6.3000
1240.8190;-50.9700;-44.6900;-6.2800
1241.0180;-50.8400;-44.5700;-6.2700
1241.2170;-50.7000;-44.4700;-6.2300
1241.4160;-50.5800;-44.3500;-6.2300
1241.6150;-50.4300;-44.2300;-6.2000
1241.8140;-50.2800;-44.1100;-6.1700
1242.0130;-50.1500;-43.9900;-6.1600
1242.2120;-50.0000;-43.8800;-6.1200
1242.4120;-49.8600;-43.7400;-6.1200
1242.6110;-49.6900;-43.6100;-6.0800
1242.8100;-49.5400;-43.4900;-6.0500
1243.0090;-49.3900;-43.3500;-6.0400
1243.2080;-49.2200;-43.2300;-5.9900
1243.4070;-49.0800;-43.0900;-5.9900
1243.6060;-48.9100;-42.9700;-5.9400
1243.8050;-48.7600;-42.8400;-5.9200
1244.0040;-48.6000;-42.7100;-5.8900
1244.2040;-48.4500;-42.6000;-5.8500
1244.4030;-48.3100;-42.4600;-5.8500
1244.6020;-48.1400;-42.3400;-5.8000
1244.8010;-47.9800;-42.2200;-5.7600
1245.0000;-47.8400;-42.0900;-5.7500
1245.1990;-47.6800;-41.9900;-5.6900
1245.3980;-47.5300;-41.8600;-5.6700
1245.5970;-47.3500;-41.7300;-5.6200
1245.7970;-47.1800;-41.6100;-5.5700
1245.9960;-47.0000;-41.4800;-5.5200
1246.1950;-46.8100;-41.3600;-5.4500
1246.3940;-46.6300;-41.2300;-5.4000
1246.5930;-46.4100;-41.0900;-5.3200
1246.7920;-46.2100;-40.9600;-5.2500
1246.9910;-45.9900;-40.8100;-5.1800
1247.1900;-45.7300;-40.6900;-5.0400
1247.3890;-45.5500;-40.5400;-5.0100
1247.5890;-45.3100;-40.3900;-4.9200
1247.7880;-45.0800;-40.2500;-4.8300
1247.9870;-44.8300;-40.0900;-4.7400
1248.1860;-44.5900;-39.9500;-4.6400
1248.3850;-44.3600;-39.7900;-4.5700
1248.5840;-44.1100;-39.6300;-4.4800
1248.7830;-43.8900;-39.4900;-4.4000
1248.9820;-43.6400;-39.3300;-4.3100
1249.1810;-43.4100;-39.1900;-4.2200
1249.3810;-43.1900;-39.0300;-4.1600
1249.5800;-42.9500;-38.8700;-4.0800
1249.7790;-42.7400;-38.7300;-4.0100
1249.9780;-42.5000;-38.5600;-3.9400
1250.1770;-42.2900;-38.4300;-3.8600
1250.3760;-42.0900;-38.2700;-3.8200
1250.5750;-41.8600;-38.1200;-3.7400
1250.7740;-41.6600;-37.9800;-3.6800
1250.9740;-41.4600;-37.8500;-3.6100
1251.1730;-41.2500;-37.7200;-3.5300
1251.3720;-41.0700;-37.5600;-3.5100
1251.5710;-40.8800;-37.4400;-3.4400
1251.7700;-40.7000;-37.2900;-3.4100
1251.9690;-40.5100;-37.1500;-3.3600
1252.1680;-40.3300;-37.0100;-3.3200
1252.3670;-40.1600;-36.8600;-3.3000
1252.5660;-40.0000;-36.7300;-3.2700
1252.7660;-39.8500;-36.5700;-3.2800
1252.9650;-39.6900;-36.4300;-3.2600
1253.1640;-39.5500;-36.2900;-3.2600
1253.3630;-39.4100;-36.1200;-3.2900
1253.5620;-39.2800;-35.9900;-3.2900
1253.7610;-39.1600;-35.8000;-3.3600
1253.9600;-39.0400;-35.6800;-3.3600
1254.1590;-38.9200;-35.5100;-3.4100
1254.3580;-38.8100;-35.3500;-3.4600
1254.5580;-38.7100;-35.2100;-3.5000
1254.7570;-38.6100;-35.0400;-3.5700
1254.9560;-38.5000;-34.8900;-3.6100
1255.1550;-38.4100;-34.7300;-3.6800
1255.3540;-38.3100;-34.5700;-3.7400
1255.5530;-38.2100;-34.4300;-3.7800
1255.7520;-38.1300;-34.2700;-3.8600
1255.9510;-38.0200;-34.1300;-3.8900
1256.1500;-37.9300;-33.9700;-3.9600
1256.3500;-37.8300;-33.8400;-3.9900
1256.5490;-37.7500;-33.7100;-4.0400
1256.7480;-37.6700;-33.5600;-4.1100
1256.9470;-37.5600;-33.4300;-4.1300
1257.1460;-37.4700;-33.2900;-4.1800
1257.3450;-37.3700;-33.1500;-4.2200
1257.5440;-37.2700;-33.0300;-4.2400
1257.7430;-37.1800;-32.8800;-4.3000
1257.9430;-37.0600;-32.7500;-4.3100
1258.1420;-36.9600;-32.6100;-4.3500
1258.3410;-36.8200;-32.4700;-4.3500
1258.5400;-36.6800;-32.3500;-4.3300
1258.7390;-36.5400;-32.2000;-4.3400
1258.9380;-36.3600;-32.0700;-4.2900
1259.1370;-36.2000;-31.9200;-4.2800
1259.3360;-35.9900;-31.7800;-4.2100
1259.5350;-35.7600;-31.6400;-4.1200
1259.7350;-35.5700;-31.4900;-4.0800
1259.9340;-35.3300;-31.3500;-3.9800
1260.1330;-35.1000;-31.2000;-3.9000
1260.3320;-34.8500;-31.0600;-3.7900
1260.5310;-34.6100;-30.9200;-3.6900
1260.7300;-34.3400;-30.7700;-3.5700
1260.9290;-34.0700;-30.6400;-3.4300
1261.1280;-33.8100;-30.4900;-3.3200
1261.3270;-33.5400;-30.3600;-3.1800
1261.5270;-33.2900;-30.2300;-3.0600
1261.7260;-33.0200;-30.1000;-2.9200
1261.9250;-32.7500;-29.9700;-2.7800
1262.1240;-32.5000;-29.8300;-2.6700
1262.3230;-32.2400;-29.7100;-2.5300
1262.5220;-32.0100;-29.5900;-2.4200
1262.7210;-31.7600;-29.4600;-2.3000
1262.9200;-31.5200;-29.3500;-2.1700
1263.1200;-31.2800;-29.2200;-2.0600
1263.3190;-31.0400;-29.1000;-1.9400
1263.5180;-30.8400;-28.9800;-1.8600
1263.7170;-30.6100;-28.8600;-1.7500
1263.9160;-30.4000;-28.7400;-1.6600
1264.1150;-30.1900;-28.6000;-1.5900
1264.3140;-29.9900;-28.4800;-1.5100
1264.5130;-29.8100;-28.3500;-1.4600
1264.7120;-29.6200;-28.2200;-1.4000
1264.9120;-29.4400;-28.1000;-1.3400
1265.1110;-29.2700;-27.9600;-1.3100
1265.3100;-29.1100;-27.8300;-1.2800
1265.5090;-28.9800;-27.7000;-1.2800
1265.7080;-28.8300;-27.5700;-1.2600
1265.9070;-28.7000;-27.4400;-1.2600
1266.1060;-28.5700;-27.3000;-1.2700
1266.3050;-28.4600;-27.1800;-1.2800
1266.5040;-28.3800;-27.0500;-1.3300
1266.7040;-28.2800;-26.9300;-1.3500
1266.9030;-28.2000;-26.8000;-1.4000
1267.1020;-28.1300;-26.6700;-1.4600
1267.3010;-28.0600;-26.5600;-1.5000
1267.5000;-28.0400;-26.4300;-1.6100
1267.6990;-27.9900;-26.3200;-1.6700
1267.8980;-27.9600;-26.2000;-1.7600
1268.0970;-27.9500;-26.0700;-1.8800
1268.2970;-27.9400;-25.9700;-1.9700
1268.4960;-27.9600;-25.8600;-2.1000
1268.6950;-27.9600;-25.7500;-2.2100
1268.8940;-27.9800;-25.6200;-2.3600
1269.0930;-28.0000;-25.5100;-2.4900
1269.2920;-28.0400;-25.3900;-2.6500
1269.4910;-28.1000;-25.2800;-2.8200
1269.6900;-28.1400;-25.1700;-2.9700
1269.8890;-28.2000;-25.0400;-3.1600
1270.0890;-28.2500;-24.9200;-3.3300
1270.2880;-28.3100;-24.8000;-3.5100
1270.4870;-28.3900;-24.6900;-3.7000
1270.6860;-28.4400;-24.5700;-3.8700
1270.8850;-28.5000;-24.4400;-4.0600
1271.0840;-28.5500;-24.3200;-4.2300
1271.2830;-28.5800;-24.2000;-4.3800
1271.4820;-28.6200;-24.0800;-4.5400
1271.6810;-28.6200;-23.9700;-4.6500
1271.8810;-28.6400;-23.8300;-4.8100
1272.0800;-28.6100;-23.7300;-4.8800
1272.2790;-28.5800;-23.6100;-4.9700
1272.4780;-28.5400;-23.4900;-5.0500
1272.6770;-28.4600;-23.3900;-5.0700
1272.8760;-28.3800;-23.2700;-5.1100
1273.0750;-28.2600;-23.1700;-5.0900
1273.2740;-28.1300;-23.0600;-5.0700
1273.4740;-27.9800;-22.9500;-5.0300
1273.6730;-27.8000;-22.8600;-4.9400
1273.8720;-27.6200;-22.7500;-4.8700
1274.0710;-27.4000;-22.6600;-4.7400
1274.2700;-27.1800;-22.5500;-4.6300
1274.4690;-26.9300;-22.4500;-4.4800
1274.6680;-26.6700;-22.3600;-4.3100
1274.8670;-26.4100;-22.2500;-4.1600
1275.0660;-26.0700;-22.1700;-3.9000
1275.2660;-25.8400;-22.0600;-3.7800
1275.4650;-25.5400;-21.9600;-3.5800
1275.6640;-25.2600;-21.8700;-3.3900
1275.8630;-24.9600;-21.7700;-3.1900
1276.0620;-24.6600;-21.6800;-2.9800
1276.2610;-24.3800;-21.5800;-2.8000
1276.4600;-24.0900;-21.4800;-2.6100
1276.6590;-23.8200;-21.3800;-2.4400
1276.8580;-23.5400;-21.2800;-2.2600
1277.0580;-23.2800;-21.2000;-2.0800
1277.2570;-23.0400;-21.0900;-1.9500
1277.4560;-22.7900;-21.0100;-1.7800
1277.6550;-22.5700;-20.9200;-1.6500
1277.8540;-22.3400;-20.8300;-1.5100
1278.0530;-22.1300;-20.7500;-1.3800
1278.2520;-21.9200;-20.6600;-1.2600
1278.4510;-21.7200;-20.5800;-1.1400
1278.6500;-21.5500;-20.4900;-1.0600
1278.8500;-21.3600;-20.4100;-0.9500
1279.0490;-21.1800;-20.3400;-0.8400
1279.2480;-21.0200;-20.2500;-0.7700
1279.4470;-20.8600;-20.1900;-0.6700
1279.6460;-20.7200;-20.1000;-0.6200
1279.8450;-20.5700;-20.0200;-0.5500
1280.0440;-20.4500;-19.9500;-0.5000
1280.2430;-20.3200;-19.8700;-0.4500
1280.4430;-20.2000;-19.8100;-0.3900
1280.6420;-20.1100;-19.7200;-0.3900
1280.8410;-20.0000;-19.6400;-0.3600
1281.0400;-19.9200;-19.5700;-0.3500
1281.2390;-19.8300;-19.4900;-0.3400
1281.4380;-19.7500;-19.4200;-0.3300
1281.6370;-19.7000;-19.3300;-0.3700
1281.8360;-19.6300;-19.2500;-0.3800
1282.0350;-19.5900;-19.1700;-0.4200
1282.2350;-19.5400;-19.0800;-0.4600
1282.4340;-19.5100;-19.0200;-0.4900
1282.6330;-19.5000;-18.9400;-0.5600
1282.8320;-19.4700;-18.8600;-0.6100
1283.0310;-19.4700;-18.7800;-0.6900
1283.2300;-19.4600;-18.7000;-0.7600
1283.4290;-19.4600;-18.6400;-0.8200
1283.6280;-19.4700;-18.5500;-0.9200
1283.8270;-19.4800;-18.4900;-0.9900
1284.0270;-19.5100;-18.4100;-1.1000
1284.2260;-19.5200;-18.3300;-1.1900
1284.4250;-19.5500;-18.2800;-1.2700
1284.6240;-19.5700;-18.2000;-1.3700
1284.8230;-19.6000;-18.1300;-1.4700
1285.0220;-19.6500;-18.0500;-1.6000
1285.2210;-19.6700;-17.9800;-1.6900
1285.4200;-19.7100;-17.9200;-1.7900
1285.6200;-19.7400;-17.8400;-1.9000
1285.8190;-19.7600;-17.7800;-1.9800
1286.0180;-19.8000;-17.7000;-2.1000
1286.2170;-19.8100;-17.6300;-2.1800
1286.4160;-19.8400;-17.5700;-2.2700
1286.6150;-19.8500;-17.5000;-2.3500
1286.8140;-19.8600;-17.4400;-2.4200
1287.0130;-19.8700;-17.3600;-2.5100
1287.2120;-19.8500;-17.2900;-2.5600
1287.4120;-19.8400;-17.2200;-2.6200
1287.6110;-19.8100;-17.1500;-2.6600
1287.8100;-19.7800;-17.1000;-2.6800
1288.0090;-19.7500;-17.0200;-2.7300
1288.2080;-19.7000;-16.9600;-2.7400
1288.4070;-19.6500;-16.9000;-2.7500
1288.6060;-19.5900;-16.8300;-2.7600
1288.8050;-19.5200;-16.7800;-2.7400
1289.0040;-19.4500;-16.7100;-2.7400
1289.2040;-19.3700;-16.6600;-2.7100
1289.4030;-19.3000;-16.6000;-2.7000
1289.6020;-19.2100;-16.5500;-2.6600
1289.8010;-19.1300;-16.5000;-2.6300
1290.0000;-19.0400;-16.4300;-2.6100
1290.1990;-18.9500;-16.3900;-2.5600
1290.3980;-18.8700;-16.3300;-2.5400
1290.5970;-18.7800;-16.2900;-2.4900
1290.7970;-18.7000;-16.2500;-2.4500
1290.9960;-18.6000;-16.1800;-2.4200
1291.1950;-18.5100;-16.1400;-2.3700
1291.3940;-18.4500;-16.0800;-2.3700
1291.5930;-18.3600;-16.0400;-2.3200
1291.7920;-18.3000;-15.9800;-2.3200
1291.9910;-18.2300;-15.9400;-2.2900
1292.1900;-18.1700;-15.8900;-2.2800
1292.3890;-18.1200;-15.8500;-2.2700
1292.5890;-18.0600;-15.8000;-2.2600
1292.7880;-18.0400;-15.7500;-2.2900
1292.9870;-18.0000;-15.7100;-2.2900
1293.1860;-17.9900;-15.6600;-2.3300
1293.3850;-17.9700;-15.6200;-2.3500
1293.5840;-17.9600;-15.5800;-2.3800
1293.7830;-17.9700;-15.5300;-2.4400
1293.9820;-17.9600;-15.5000;-2.4600
1294.1810;-17.9900;-15.4500;-2.5400
1294.3810;-18.0000;-15.4200;-2.5800
1294.5800;-18.0200;-15.3800;-2.6400
1294.7790;-18.0600;-15.3400;-2.7200
1294.9780;-18.0900;-15.3100;-2.7800
1295.1770;-18.1500;-15.2700;-2.8800
1295.3760;-18.1900;-15.2400;-2.9500
1295.5750;-18.2200;-15.2000;-3.0200
1295.7740;-18.2800;-15.1600;-3.1200
1295.9740;-18.3200;-15.1300;-3.1900
1296.1730;-18.3900;-15.0800;-3.3100
1296.3720;-18.4300;-15.0600;-3.3700
1296.5710;-18.4800;-15.0200;-3.4600
1296.7700;-18.5200;-14.9800;-3.5400
1296.9690;-18.5700;-14.9600;-3.6100
1297.1680;-18.6200;-14.9300;-3.6900
1297.3670;-18.6400;-14.9000;-3.7400
1297.5660;-18.6700;-14.8500;-3.8200
1297.7660;-18.6700;-14.8200;-3.8500
1297.9650;-18.6800;-14.8000;-3.8800
1298.1640;-18.6800;-14.7600;-3.9200
1298.3630;-18.6600;-14.7400;-3.9200
1298.5620;-18.6400;-14.7000;-3.9400
1298.7610;-18.5900;-14.6700;-3.9200
1298.9600;-18.5400;-14.6500;-3.8900
1299.1590;-18.4700;-14.6200;-3.8500
1299.3580;-18.4000;-14.6000;-3.8000
1299.5580;-18.3100;-14.5600;-3.7500
1299.7570;-18.2000;-14.5400;-3.6600
1299.9560;-18.1100;-14.5200;-3.5900
1300.1550;-17.9800;-14.4900;-3.4900
1300.3540;-17.8500;-14.4800;-3.3700
1300.5530;-17.7200;-14.4300;-3.2900
1300.7520;-17.5800;-14.4100;-3.1700
1300.9510;-17.4500;-14.3900;-3.0600
1301.1500;-17.3000;-14.3800;-2.9200
1301.3500;-17.1600;-14.3700;-2.7900
1301.5490;-17.0200;-14.3500;-2.6700
1301.7480;-16.8800;-14.3400;-2.5400
1301.9470;-16.7500;-14.3200;-2.4300
1302.1460;-16.6000;-14.3100;-2.2900
1302.3450;-16.4700;-14.3000;-2.1700
1302.5440;-16.3500;-14.2800;-2.0700
1302.7430;-16.2300;-14.2800;-1.9500
1302.9430;-16.1200;-14.2600;-1.8600
1303.1420;-16.0000;-14.2500;-1.7500
1303.3410;-15.9200;-14.2400;-1.6800
1303.5400;-15.8300;-14.2400;-1.5900
1303.7390;-15.7600;-14.2400;-1.5200
1303.9380;-15.6800;-14.2100;-1.4700
1304.1370;-15.6200;-14.2200;-1.4000
1304.3360;-15.5700;-14.2100;-1.3600
1304.5350;-15.5200;-14.2100;-1.3100
1304.7350;-15.4900;-14.2200;-1.2700
1304.9340;-15.4500;-14.2100;-1.2400
1305.1330;-15.4300;-14.2200;-1.2100
1305.3320;-15.4200;-14.2100;-1.2100
1305.5310;-15.4200;-14.2200;-1.2000
1305.7300;-15.4400;-14.2300;-1.2100
1305.9290;-15.4400;-14.2200;-1.2200
1306.1280;-15.4800;-14.2400;-1.2400
1306.3270;-15.5200;-14.2400;-1.2800
1306.5270;-15.5700;-14.2500;-1.3200
1306.7260;-15.6500;-14.2600;-1.3900
1306.9250;-15.7100;-14.2600;-1.4500
1307.1240;-15.8100;-14.2800;-1.5300
1307.3230;-15.9000;-14.2800;-1.6200
1307.5220;-16.0200;-14.3000;-1.7200
1307.7210;-16.1500;-14.3100;-1.8400
1307.9200;-16.2700;-14.3100;-1.9600
1308.1200;-16.4300;-14.3500;-2.0800
1308.3190;-16.5800;-14.3500;-2.2300
1308.5180;-16.7600;-14.3700;-2.3900
1308.7170;-16.9400;-14.3800;-2.5600
1308.9160;-17.1300;-14.3900;-2.7400
1309.1150;-17.3500;-14.4300;-2.9200
1309.3140;-17.5500;-14.4300;-3.1200
1309.5130;-17.7900;-14.4700;-3.3200
1309.7120;-18.0200;-14.4800;-3.5400
1309.9120;-18.2600;-14.5000;-3.7600
1310.1110;-18.5800;-14.5400;-4.0400
