Wavelength;Intensity_Meas;Intensity_Ref;Difference_dB
1200.0000;-61.1400;-56.1700;-4.9700
1200.1990;-61.1200;-56.1300;-4.9900
1200.3980;-61.0900;-56.1000;-4.9900
1200.5970;-61.0800;-56.0800;-5.0000
1200.7970;-61.0700;-56.0500;-5.0200
1200.9960;-61.0400;-56.0200;-5.0200
1201.1950;-60.9900;-55.9700;-5.0200
1201.3940;-60.9800;-55.9300;-5.0500
1201.5930;-60.9400;-55.9000;-5.0400
1201.7920;-60.8800;-55.8500;-5.0300
1201.9910;-60.8800;-55.8100;-5.0700
1202.1900;-60.8200;-55.7500;-5.0700
1202.3890;-60.7300;-55.7000;-5.0300
1202.5890;-60.6800;-55.6600;-5.0200
1202.7880;-60.7000;-55.5900;-5.1100
1202.9870;-60.6800;-55.5400;-5.1400
1203.1860;-60.5500;-55.4800;-5.0700
1203.3850;-60.5400;-55.4400;-5.1000
1203.5840;-60.5500;-55.4200;-5.1300
1203.7830;-60.5200;-55.3500;-5.1700
1203.9820;-60.4300;-55.3200;-5.1100
1204.1810;-60.4200;-55.2800;-5.1400
1204.3810;-60.4400;-55.2400;-5.2000
1204.5800;-60.4100;-55.2300;-5.1800
1204.7790;-60.3400;-55.1800;-5.1600
1204.9780;-60.3400;-55.1500;-5.1900
1205.1770;-60.3000;-55.1200;-5.1800
1205.3760;-60.2800;-55.0900;-5.1900
1205.5750;-60.2600;-55.0900;-5.1700
1205.7740;-60.2300;-55.0500;-5.1800
1205.9740;-60.2000;-55.0400;-5.1600
1206.1730;-60.1900;-55.0200;-5.1700
1206.3720;-60.1600;-54.9900;-5.1700
1206.5710;-60.1100;-54.9800;-5.1300
1206.7700;-60.0400;-54.9500;-5.0900
1206.9690;-60.0200;-54.9300;-5.0900
1207.1680;-60.0000;-54.9000;-5.1000
1207.3670;-59.9200;-54.8600;-5.0600
1207.5660;-59.8700;-54.8500;-5.0200
1207.7660;-59.8400;-54.8000;-5.0400
1207.9650;-59.8200;-54.7700;-5.0500
1208.1640;-59.7400;-54.7200;-5.0200
1208.3630;-59.6700;-54.6800;-4.9900
1208.5620;-59.6200;-54.6500;-4.9700
1208.7610;-59.5900;-54.5800;-5.0100
1208.9600;-59.5300;-54.5400;-4.9900
1209.1590;-59.4300;-54.4900;-4.9400
1209.3580;-59.3800;-54.4300;-4.9500
1209.5580;-59.3400;-54.4000;-4.9400
1209.7570;-59.2900;-54.3400;-4.9500
1209.9560;-59.2200;-54.2800;-4.9400
1210.1550;-59.1300;-54.2300;-4.9000
1210.3540;-59.0900;-54.1800;-4.9100
1210.5530;-59.0600;-54.1400;-4.9200
1210.7520;-58.9900;-54.0800;-4.9100
1210.9510;-58.9200;-54.0300;-4.8900
1211.1500;-58.8700;-54.0000;-4.8700
1211.3500;-58.8300;-53.9500;-4.8800
1211.5490;-58.7900;-53.9200;-4.8700
1211.7480;-58.7100;-53.8800;-4.8300
1211.9470;-58.6800;-53.8400;-4.8400
1212.1460;-58.6700;-53.8200;-4.8500
1212.3450;-58.6500;-53.7700;-4.8800
1212.5440;-58.5900;-53.7600;-4.8300
1212.7430;-58.5600;-53.7200;-4.8400
1212.9430;-58.5600;-53.6800;-4.8800
1213.1420;-58.5600;-53.6700;-4.8900
1213.3410;-58.5200;-53.6300;-4.8900
1213.5400;-58.4800;-53.6100;-4.8700
1213.7390;-58.4900;-53.5700;-4.9200
1213.9380;-58.5100;-53.5300;-4.9800
1214.1370;-58.4700;-53.5100;-4.9600
1214.3360;-58.4400;-53.4600;-4.9800
1214.5350;-58.4800;-53.4400;-5.0400
1214.7350;-58.4800;-53.3900;-5.0900
1214.9340;-58.4500;-53.3400;-5.1100
1215.1330;-58.4000;-53.2900;-5.1100
1215.3320;-58.3900;-53.2400;-5.1500
1215.5310;-58.4100;-53.2000;-5.2100
1215.7300;-58.3500;-53.1400;-5.2100
1215.9290;-58.3000;-53.0800;-5.2200
1216.1280;-58.2500;-53.0300;-5.2200
1216.3270;-58.2300;-52.9600;-5.2700
1216.5270;-58.2000;-52.9200;-5.2800
1216.7260;-58.1100;-52.8600;-5.2500
1216.9250;-58.0800;-52.7900;-5.2900
1217.1240;-58.0400;-52.7400;-5.3000
1217.3230;-58.0100;-52.6700;-5.3400
1217.5220;-57.9200;-52.6300;-5.2900
1217.7210;-57.8500;-52.5700;-5.2800
1217.9200;-57.8400;-52.5200;-5.3200
1218.1200;-57.7900;-52.4800;-5.3100
1218.3190;-57.7300;-52.4200;-5.3100
1218.5180;-57.6800;-52.3900;-5.2900
1218.7170;-57.6600;-52.3400;-5.3200
1218.9160;-57.6300;-52.2900;-5.3400
1219.1150;-57.5800;-52.2600;-5.3200
1219.3140;-57.5200;-52.2100;-5.3100
1219.5130;-57.5200;-52.1900;-5.3300
1219.7120;-57.5000;-52.1500;-5.3500
1219.9120;-57.4600;-52.1100;-5.3500
1220.1110;-57.4000;-52.0700;-5.3300
1220.3100;-57.3900;-52.0300;-5.3600
1220.5090;-57.3700;-52.0000;-5.3700
1220.7080;-57.3100;-51.9500;-5.3600
1220.9070;-57.2600;-51.9100;-5.3500
1221.1060;-57.2100;-51.8500;-5.3600
1221.3050;-57.1900;-51.8000;-5.3900
1221.5040;-57.1100;-51.7500;-5.3600
1221.7040;-57.0300;-51.6800;-5.3500
1221.9030;-57.0000;-51.6300;-5.3700
1222.1020;-56.9300;-51.5700;-5.3600
1222.3010;-56.8700;-51.5000;-5.3700
1222.5000;-56.7800;-51.4300;-5.3500
1222.6990;-56.7200;-51.3600;-5.3600
1222.8980;-56.6900;-51.2900;-5.4000
1223.0970;-56.5900;-51.2200;-5.3700
1223.2970;-56.5100;-51.1500;-5.3600
1223.4960;-56.4600;-51.0800;-5.3800
1223.6950;-56.4200;-51.0000;-5.4200
1223.8940;-56.3700;-50.9400;-5.4300
1224.0930;-56.2900;-50.8700;-5.4200
1224.2920;-56.2500;-50.8000;-5.4500
1224.4910;-56.2300;-50.7400;-5.4900
1224.6900;-56.1900;-50.6700;-5.5200
1224.8890;-56.1500;-50.6000;-5.5500
1225.0890;-56.1200;-50.5500;-5.5700
1225.2880;-56.1200;-50.4800;-5.6400
1225.4870;-56.0700;-50.4300;-5.6400
1225.6860;-56.0600;-50.3700;-5.6900
1225.8850;-56.0700;-50.3200;-5.7500
1226.0840;-56.0400;-50.2700;-5.7700
1226.2830;-56.0300;-50.2100;-5.8200
1226.4820;-56.0000;-50.1600;-5.8400
1226.6810;-55.9900;-50.1100;-5.8800
1226.8810;-56.0100;-50.0600;-5.9500
1227.0800;-55.9800;-50.0000;-5.9800
1227.2790;-55.9600;-49.9500;-6.0100
1227.4780;-55.9400;-49.8900;-6.0500
1227.6770;-55.9300;-49.8300;-6.1000
1227.8760;-55.9100;-49.7700;-6.1400
1228.0750;-55.8500;-49.7100;-6.1400
1228.2740;-55.8400;-49.6400;-6.2000
1228.4740;-55.8000;-49.5700;-6.2300
1228.6730;-55.7400;-49.4900;-6.2500
1228.8720;-55.7200;-49.4200;-6.3000
1229.0710;-55.6700;-49.3500;-6.3200
1229.2700;-55.6400;-49.2600;-6.3800
1229.4690;-55.5900;-49.1900;-6.4000
1229.6680;-55.5300;-49.1000;-6.4300
1229.8670;-55.5100;-49.0100;-6.5000
1230.0660;-55.4600;-48.9500;-6.5100
1230.2660;-55.4000;-48.8500;-6.5500
1230.4650;-55.3400;-48.7700;-6.5700
1230.6640;-55.3000;-48.6900;-6.6100
1230.8630;-55.2800;-48.6200;-6.6600
1231.0620;-55.2100;-48.5500;-6.6600
1231.2610;-55.1700;-48.4800;-6.6900
1231.4600;-55.1300;-48.4300;-6.7000
1231.6590;-55.0700;-48.3500;-6.7200
1231.8580;-55.0100;-48.2800;-6.7300
1232.0580;-54.9600;-48.2300;-6.7300
1232.2570;-54.9000;-48.1600;-6.7400
1232.4560;-54.8200;-48.1200;-6.7000
1232.6550;-54.7300;-48.0400;-6.6900
1232.8540;-54.6600;-47.9800;-6.6800
1233.0530;-54.5800;-47.9300;-6.6500
1233.2520;-54.5000;-47.8600;-6.6400
1233.4510;-54.3800;-47.8100;-6.5700
1233.6500;-54.2900;-47.7400;-6.5500
1233.8500;-54.2100;-47.6800;-6.5300
1234.0490;-54.0900;-47.6200;-6.4700
1234.2480;-53.9900;-47.5400;-6.4500
1234.4470;-53.8800;-47.4800;-6.4000
1234.6460;-53.7800;-47.4000;-6.3800
1234.8450;-53.6700;-47.3300;-6.3400
1235.0440;-53.5400;-47.2400;-6.3000
1235.2430;-53.4500;-47.1600;-6.2900
1235.4430;-53.3200;-47.0800;-6.2400
1235.6420;-53.1900;-46.9800;-6.2100
1235.8410;-53.0800;-46.9000;-6.1800
1236.0400;-52.9600;-46.8100;-6.1500
1236.2390;-52.8400;-46.7100;-6.1300
1236.4380;-52.7100;-46.6200;-6.0900
1236.6370;-52.6000;-46.5300;-6.0700
1236.8360;-52.4900;-46.4400;-6.0500
1237.0350;-52.3600;-46.3400;-6.0200
1237.2350;-52.2500;-46.2500;-6.0000
1237.4340;-52.1200;-46.1600;-5.9600
1237.6330;-52.0100;-46.0700;-5.9400
1237.8320;-51.9100;-46.0000;-5.9100
1238.0310;-51.7900;-45.8900;-5.9000
1238.2300;-51.7100;-45.8300;-5.8800
1238.4290;-51.6000;-45.7300;-5.8700
1238.6280;-51.5000;-45.6600;-5.8400
1238.8270;-51.4100;-45.5800;-5.8300
1239.0270;-51.3200;-45.5000;-5.8200
1239.2260;-51.2500;-45.4200;-5.8300
1239.4250;-51.1500;-45.3300;-5.8200
1239.6240;-51.0800;-45.2500;-5.8300
1239.8230;-51.0000;-45.1600;-5.8400
1240.0220;-50.9200;-45.0700;-5.8500
1240.2210;-50.8600;-44.9900;-5.8700
1240.4200;-50.7600;-44.8800;-5.8800
1240.6200;-50.6900;-44.8000;-5.8900
1240.8190;-50.6100;-44.6900;-5.9200
1241.0180;-50.5100;-44.5700;-5.9400
1241.2170;-50.4300;-44.4700;-5.9600
1241.4160;-50.3200;-44.3500;-5.9700
1241.6150;-50.2100;-44.2300;-5.9800
1241.8140;-50.1100;-44.1100;-6.0000
1242.0130;-49.9900;-43.9900;-6.0000
1242.2120;-49.8800;-43.8800;-6.0000
1242.4120;-49.7400;-43.7400;-6.0000
1242.6110;-49.6000;-43.6100;-5.9900
1242.8100;-49.4600;-43.4900;-5.9700
1243.0090;-49.3000;-43.3500;-5.9500
1243.2080;-49.1600;-43.2300;-5.9300
1243.4070;-49.0000;-43.0900;-5.9100
1243.6060;-48.8300;-42.9700;-5.8600
1243.8050;-48.6700;-42.8400;-5.8300
1244.0040;-48.4800;-42.7100;-5.7700
1244.2040;-48.3300;-42.6000;-5.7300
1244.4030;-48.1500;-42.4600;-5.6900
1244.6020;-47.9700;-42.3400;-5.6300
1244.8010;-47.7900;-42.2200;-5.5700
1245.0000;-47.6100;-42.0900;-5.5200
1245.1990;-47.4500;-41.9900;-5.4600
1245.3980;-47.2600;-41.8600;-5.4000
1245.5970;-47.0700;-41.7300;-5.3400
1245.7970;-46.8800;-41.6100;-5.2700
1245.9960;-46.6900;-41.4800;-5.2100
1246.1950;-46.5200;-41.3600;-5.1600
1246.3940;-46.3200;-41.2300;-5.0900
1246.5930;-46.1300;-41.0900;-5.0400
1246.7920;-45.9400;-40.9600;-4.9800
1246.9910;-45.7100;-40.8100;-4.9000
1247.1900;-45.5600;-40.6900;-4.8700
1247.3890;-45.3800;-40.5400;-4.8400
1247.5890;-45.2000;-40.3900;-4.8100
1247.7880;-45.0100;-40.2500;-4.7600
1247.9870;-44.8300;-40.0900;-4.7400
1248.1860;-44.6600;-39.9500;-4.7100
1248.3850;-44.4900;-39.7900;-4.7000
1248.5840;-44.3400;-39.6300;-4.7100
1248.7830;-44.1800;-39.4900;-4.6900
1248.9820;-44.0500;-39.3300;-4.7200
1249.1810;-43.9100;-39.1900;-4.7200
1249.3810;-43.7900;-39.0300;-4.7600
1249.5800;-43.6800;-38.8700;-4.8100
1249.7790;-43.5700;-38.7300;-4.8400
1249.9780;-43.4700;-38.5600;-4.9100
1250.1770;-43.3900;-38.4300;-4.9600
1250.3760;-43.3100;-38.2700;-5.0400
1250.5750;-43.2500;-38.1200;-5.1300
1250.7740;-43.1800;-37.9800;-5.2000
1250.9740;-43.1500;-37.8500;-5.3000
1251.1730;-43.1100;-37.7200;-5.3900
1251.3720;-43.0800;-37.5600;-5.5200
1251.5710;-43.0900;-37.4400;-5.6500
1251.7700;-43.0700;-37.2900;-5.7800
1251.9690;-43.0800;-37.1500;-5.9300
1252.1680;-43.1000;-37.0100;-6.0900
1252.3670;-43.1200;-36.8600;-6.2600
1252.5660;-43.1800;-36.7300;-6.4500
1252.7660;-43.2200;-36.5700;-6.6500
1252.9650;-43.3100;-36.4300;-6.8800
1253.1640;-43.3900;-36.2900;-7.1000
1253.3630;-43.4800;-36.1200;-7.3600
1253.5620;-43.6100;-35.9900;-7.6200
1253.7610;-43.7300;-35.8000;-7.9300
1253.9600;-43.8800;-35.6800;-8.2000
1254.1590;-44.0200;-35.5100;-8.5100
1254.3580;-44.1700;-35.3500;-8.8200
1254.5580;-44.3400;-35.2100;-9.1300
1254.7570;-44.4800;-35.0400;-9.4400
1254.9560;-44.6300;-34.8900;-9.7400
1255.1550;-44.7500;-34.7300;-10.0200
1255.3540;-44.8300;-34.5700;-10.2600
1255.5530;-44.8900;-34.4300;-10.4600
1255.7520;-44.8900;-34.2700;-10.6200
1255.9510;-44.8500;-34.1300;-10.7200
1256.1500;-44.7400;-33.9700;-10.7700
1256.3500;-44.5800;-33.8400;-10.7400
1256.5490;-44.3800;-33.7100;-10.6700
1256.7480;-44.1100;-33.5600;-10.5500
1256.9470;-43.8200;-33.4300;-10.3900
1257.1460;-43.4600;-33.2900;-10.1700
1257.3450;-43.0900;-33.1500;-9.9400
1257.5440;-42.7100;-33.0300;-9.6800
1257.7430;-42.2900;-32.8800;-9.4100
1257.9430;-41.8700;-32.7500;-9.1200
1258.1420;-41.4400;-32.6100;-8.8300
1258.3410;-40.9900;-32.4700;-8.5200
1258.5400;-40.5600;-32.3500;-8.2100
1258.7390;-40.1100;-32.2000;-7.9100
1258.9380;-39.6800;-32.0700;-7.6100
1259.1370;-39.2500;-31.9200;-7.3300
1259.3360;-38.8200;-31.7800;-7.0400
1259.5350;-38.4100;-31.6400;-6.7700
1259.7350;-37.9900;-31.4900;-6.5000
1259.9340;-37.6000;-31.3500;-6.2500
1260.1330;-37.2100;-31.2000;-6.0100
1260.3320;-36.8400;-31.0600;-5.7800
1260.5310;-36.4800;-30.9200;-5.5600
1260.7300;-36.1400;-30.7700;-5.3700
1260.9290;-35.7600;-30.6400;-5.1200
1261.1280;-35.5000;-30.4900;-5.0100
1261.3270;-35.2200;-30.3600;-4.8600
1261.5270;-34.9400;-30.2300;-4.7100
1261.7260;-34.6900;-30.1000;-4.5900
1261.9250;-34.4400;-29.9700;-4.4700
1262.1240;-34.2200;-29.8300;-4.3900
1262.3230;-34.0200;-29.7100;-4.3100
1262.5220;-33.8300;-29.5900;-4.2400
1262.7210;-33.6600;-29.4600;-4.2000
1262.9200;-33.5000;-29.3500;-4.1500
1263.1200;-33.3500;-29.2200;-4.1300
1263.3190;-33.2400;-29.1000;-4.1400
1263.5180;-33.1300;-28.9800;-4.1500
1263.7170;-33.0400;-28.8600;-4.1800
1263.9160;-32.9600;-28.7400;-4.2200
1264.1150;-32.9000;-28.6000;-4.3000
1264.3140;-32.8600;-28.4800;-4.3800
1264.5130;-32.8400;-28.3500;-4.4900
1264.7120;-32.8400;-28.2200;-4.6200
1264.9120;-32.8400;-28.1000;-4.7400
1265.1110;-32.8600;-27.9600;-4.9000
1265.3100;-32.9200;-27.8300;-5.0900
1265.5090;-32.9800;-27.7000;-5.2800
1265.7080;-33.0700;-27.5700;-5.5000
1265.9070;-33.1700;-27.4400;-5.7300
1266.1060;-33.2800;-27.3000;-5.9800
1266.3050;-33.4100;-27.1800;-6.2300
1266.5040;-33.5600;-27.0500;-6.5100
1266.7040;-33.7200;-26.9300;-6.7900
1266.9030;-33.8800;-26.8000;-7.0800
1267.1020;-34.0500;-26.6700;-7.3800
1267.3010;-34.2300;-26.5600;-7.6700
1267.5000;-34.4000;-26.4300;-7.9700
1267.6990;-34.5700;-26.3200;-8.2500
1267.8980;-34.7000;-26.2000;-8.5000
1268.0970;-34.8300;-26.0700;-8.7600
1268.2970;-34.9200;-25.9700;-8.9500
1268.4960;-34.9700;-25.8600;-9.1100
1268.6950;-34.9800;-25.7500;-9.2300
1268.8940;-34.9200;-25.6200;-9.3000
1269.0930;-34.8000;-25.5100;-9.2900
1269.2920;-34.6300;-25.3900;-9.2400
1269.4910;-34.3900;-25.2800;-9.1100
1269.6900;-34.1000;-25.1700;-8.9300
1269.8890;-33.7300;-25.0400;-8.6900
1270.0890;-33.3300;-24.9200;-8.4100
1270.2880;-32.9000;-24.8000;-8.1000
1270.4870;-32.4400;-24.6900;-7.7500
1270.6860;-31.9600;-24.5700;-7.3900
1270.8850;-31.4400;-24.4400;-7.0000
1271.0840;-30.9400;-24.3200;-6.6200
1271.2830;-30.4300;-24.2000;-6.2300
1271.4820;-29.9200;-24.0800;-5.8400
1271.6810;-29.4400;-23.9700;-5.4700
1271.8810;-28.9500;-23.8300;-5.1200
1272.0800;-28.5000;-23.7300;-4.7700
1272.2790;-28.0600;-23.6100;-4.4500
1272.4780;-27.6300;-23.4900;-4.1400
1272.6770;-27.2400;-23.3900;-3.8500
1272.8760;-26.8400;-23.2700;-3.5700
1273.0750;-26.4800;-23.1700;-3.3100
1273.2740;-26.0700;-23.0600;-3.0100
1273.4740;-25.8100;-22.9500;-2.8600
1273.6730;-25.4900;-22.8600;-2.6300
1273.8720;-25.1900;-22.7500;-2.4400
1274.0710;-24.9300;-22.6600;-2.2700
1274.2700;-24.6500;-22.5500;-2.1000
1274.4690;-24.4100;-22.4500;-1.9600
1274.6680;-24.1600;-22.3600;-1.8000
1274.8670;-23.9300;-22.2500;-1.6800
1275.0660;-23.7300;-22.1700;-1.5600
1275.2660;-23.5200;-22.0600;-1.4600
1275.4650;-23.3400;-21.9600;-1.3800
1275.6640;-23.1500;-21.8700;-1.2800
1275.8630;-23.0000;-21.7700;-1.2300
1276.0620;-22.8400;-21.6800;-1.1600
1276.2610;-22.7000;-21.5800;-1.1200
1276.4600;-22.5900;-21.4800;-1.1100
1276.6590;-22.4600;-21.3800;-1.0800
1276.8580;-22.3700;-21.2800;-1.0900
1277.0580;-22.2800;-21.2000;-1.0800
1277.2570;-22.2100;-21.0900;-1.1200
1277.4560;-22.1700;-21.0100;-1.1600
1277.6550;-22.1200;-20.9200;-1.2000
1277.8540;-22.1000;-20.8300;-1.2700
1278.0530;-22.0800;-20.7500;-1.3300
1278.2520;-22.0800;-20.6600;-1.4200
1278.4510;-22.1100;-20.5800;-1.5300
1278.6500;-22.1300;-20.4900;-1.6400
1278.8500;-22.1800;-20.4100;-1.7700
1279.0490;-22.2300;-20.3400;-1.8900
1279.2480;-22.3000;-20.2500;-2.0500
1279.4470;-22.4000;-20.1900;-2.2100
1279.6460;-22.4900;-20.1000;-2.3900
1279.8450;-22.6200;-20.0200;-2.6000
1280.0440;-22.7400;-19.9500;-2.7900
1280.2430;-22.8800;-19.8700;-3.0100
1280.4430;-23.0500;-19.8100;-3.2400
1280.6420;-23.2200;-19.7200;-3.5000
1280.8410;-23.4300;-19.6400;-3.7900
1281.0400;-23.6300;-19.5700;-4.0600
1281.2390;-23.8700;-19.4900;-4.3800
1281.4380;-24.1100;-19.4200;-4.6900
1281.6370;-24.3700;-19.3300;-5.0400
1281.8360;-24.6600;-19.2500;-5.4100
1282.0350;-24.9400;-19.1700;-5.7700
1282.2350;-25.2400;-19.0800;-6.1600
1282.4340;-25.5500;-19.0200;-6.5300
1282.6330;-25.8600;-18.9400;-6.9200
1282.8320;-26.1700;-18.8600;-7.3100
1283.0310;-26.4400;-18.7800;-7.6600
1283.2300;-26.7000;-18.7000;-8.0000
1283.4290;-26.9100;-18.6400;-8.2700
1283.6280;-27.0700;-18.5500;-8.5200
1283.8270;-27.1800;-18.4900;-8.6900
1284.0270;-27.1900;-18.4100;-8.7800
1284.2260;-27.1500;-18.3300;-8.8200
1284.4250;-26.9900;-18.2800;-8.7100
1284.6240;-26.7800;-18.2000;-8.5800
1284.8230;-26.5000;-18.1300;-8.3700
1285.0220;-26.1500;-18.0500;-8.1000
1285.2210;-25.7700;-17.9800;-7.7900
1285.4200;-25.3400;-17.9200;-7.4200
1285.6200;-24.9000;-17.8400;-7.0600
1285.8190;-24.4600;-17.7800;-6.6800
1286.0180;-23.9900;-17.7000;-6.2900
1286.2170;-23.5400;-17.6300;-5.9100
1286.4160;-23.0800;-17.5700;-5.5100
1286.6150;-22.6500;-17.5000;-5.1500
1286.8140;-22.2200;-17.4400;-4.7800
1287.0130;-21.7900;-17.3600;-4.4300
1287.2120;-21.4000;-17.2900;-4.1100
1287.4120;-21.0000;-17.2200;-3.7800
1287.6110;-20.6300;-17.1500;-3.4800
1287.8100;-20.2800;-17.1000;-3.1800
1288.0090;-19.9400;-17.0200;-2.9200
1288.2080;-19.6400;-16.9600;-2.6800
1288.4070;-19.3300;-16.9000;-2.4300
1288.6060;-19.0500;-16.8300;-2.2200
1288.8050;-18.7700;-16.7800;-1.9900
1289.0040;-18.5200;-16.7100;-1.8100
1289.2040;-18.2900;-16.6600;-1.6300
1289.4030;-18.0600;-16.6000;-1.4600
1289.6020;-17.8600;-16.5500;-1.3100
1289.8010;-17.6600;-16.5000;-1.1600
1290.0000;-17.4700;-16.4300;-1.0400
1290.1990;-17.3100;-16.3900;-0.9200
1290.3980;-17.1500;-16.3300;-0.8200
1290.5970;-17.0200;-16.2900;-0.7300
1290.7970;-16.8700;-16.2500;-0.6200
1290.9960;-16.7300;-16.1800;-0.5500
1291.1950;-16.6200;-16.1400;-0.4800
1291.3940;-16.5100;-16.0800;-0.4300
1291.5930;-16.4200;-16.0400;-0.3800
1291.7920;-16.3100;-15.9800;-0.3300
1291.9910;-16.2400;-15.9400;-0.3000
1292.1900;-16.1600;-15.8900;-0.2700
1292.3890;-16.1100;-15.8500;-0.2600
1292.5890;-16.0500;-15.8000;-0.2500
1292.7880;-15.9900;-15.7500;-0.2400
1292.9870;-15.9600;-15.7100;-0.2500
1293.1860;-15.9100;-15.6600;-0.2500
1293.3850;-15.9000;-15.6200;-0.2800
1293.5840;-15.8600;-15.5800;-0.2800
1293.7830;-15.8400;-15.5300;-0.3100
1293.9820;-15.8300;-15.5000;-0.3300
1294.1810;-15.8100;-15.4500;-0.3600
1294.3810;-15.8100;-15.4200;-0.3900
1294.5800;-15.7800;-15.3800;-0.4000
1294.7790;-15.7800;-15.3400;-0.4400
1294.9780;-15.7800;-15.3100;-0.4700
1295.1770;-15.7800;-15.2700;-0.5100
1295.3760;-15.7900;-15.2400;-0.5500
1295.5750;-15.7600;-15.2000;-0.5600
1295.7740;-15.7600;-15.1600;-0.6000
1295.9740;-15.7400;-15.1300;-0.6100
1296.1730;-15.7300;-15.0800;-0.6500
1296.3720;-15.7400;-15.0600;-0.6800
1296.5710;-15.7000;-15.0200;-0.6800
1296.7700;-15.7000;-14.9800;-0.7200
1296.9690;-15.6700;-14.9600;-0.7100
1297.1680;-15.6500;-14.9300;-0.7200
1297.3670;-15.6400;-14.9000;-0.7400
1297.5660;-15.6000;-14.8500;-0.7500
1297.7660;-15.5800;-14.8200;-0.7600
1297.9650;-15.5400;-14.8000;-0.7400
1298.1640;-15.5200;-14.7600;-0.7600
1298.3630;-15.5000;-14.7400;-0.7600
1298.5620;-15.4500;-14.7000;-0.7500
1298.7610;-15.4300;-14.6700;-0.7600
1298.9600;-15.3900;-14.6500;-0.7400
1299.1590;-15.3600;-14.6200;-0.7400
1299.3580;-15.3400;-14.6000;-0.7400
1299.5580;-15.3000;-14.5600;-0.7400
1299.7570;-15.2900;-14.5400;-0.7500
1299.9560;-15.2600;-14.5200;-0.7400
1300.1550;-15.2500;-14.4900;-0.7600
1300.3540;-15.2400;-14.4800;-0.7600
1300.5530;-15.2200;-14.4300;-0.7900
1300.7520;-15.2300;-14.4100;-0.8200
1300.9510;-15.2200;-14.3900;-0.8300
1301.1500;-15.2400;-14.3800;-0.8600
1301.3500;-15.2500;-14.3700;-0.8800
1301.5490;-15.2800;-14.3500;-0.9300
1301.7480;-15.3200;-14.3400;-0.9800
1301.9470;-15.3400;-14.3200;-1.0200
1302.1460;-15.4100;-14.3100;-1.1000
1302.3450;-15.4600;-14.3000;-1.1600
1302.5440;-15.5300;-14.2800;-1.2500
1302.7430;-15.6100;-14.2800;-1.3300
1302.9430;-15.7000;-14.2600;-1.4400
1303.1420;-15.8200;-14.2500;-1.5700
1303.3410;-15.9200;-14.2400;-1.6800
1303.5400;-16.0600;-14.2400;-1.8200
1303.7390;-16.2000;-14.2400;-1.9600
1303.9380;-16.3500;-14.2100;-2.1400
1304.1370;-16.5500;-14.2200;-2.3300
1304.3360;-16.7300;-14.2100;-2.5200
1304.5350;-16.9400;-14.2100;-2.7300
1304.7350;-17.1700;-14.2200;-2.9500
1304.9340;-17.4100;-14.2100;-3.2000
1305.1330;-17.7000;-14.2200;-3.4800
1305.3320;-17.9700;-14.2100;-3.7600
1305.5310;-18.3600;-14.2200;-4.1400
1305.7300;-18.6200;-14.2300;-4.3900
1305.9290;-18.9900;-14.2200;-4.7700
1306.1280;-19.3700;-14.2400;-5.1300
1306.3270;-19.7900;-14.2400;-5.5500
1306.5270;-20.2600;-14.2500;-6.0100
1306.7260;-20.7400;-14.2600;-6.4800
1306.9250;-21.2800;-14.2600;-7.0200
1307.1240;-21.8500;-14.2800;-7.5700
1307.3230;-22.4800;-14.2800;-8.2000
1307.5220;-23.1800;-14.3000;-8.8800
1307.7210;-23.9100;-14.3100;-9.6000
1307.9200;-24.7300;-14.3100;-10.4200
1308.1200;-25.6000;-14.3500;-11.2500
1308.3190;-26.5400;-14.3500;-12.1900
1308.5180;-27.5500;-14.3700;-13.1800
1308.7170;-28.7900;-14.3800;-14.4100
1308.9160;-29.5900;-14.3900;-15.2000
1309.1150;-30.4300;-14.4300;-16.0000
1309.3140;-30.9900;-14.4300;-16.5600
1309.5130;-31.0900;-14.4700;-16.6200
1309.7120;-30.7300;-14.4800;-16.2500
1309.9120;-30.0000;-14.5000;-15.5000
