Wavelength;Intensity_Meas;Intensity_Ref;Difference_dB
1200.0000;-61.0300;-56.1700;-4.8600
1200.1990;-60.9900;-56.1300;-4.8600
1200.3980;-60.9900;-56.1000;-4.8900
1200.5970;-61.0200;-56.0800;-4.9400
1200.7970;-60.9600;-56.0500;-4.9100
1200.9960;-60.9300;-56.0200;-4.9100
1201.1950;-60.9200;-55.9700;-4.9500
1201.3940;-60.9000;-55.9300;-4.9700
1201.5930;-60.8600;-55.9000;-4.9600
1201.7920;-60.8000;-55.8500;-4.9500
1201.9910;-60.7800;-55.8100;-4.9700
1202.1900;-60.7800;-55.7500;-5.0300
1202.3890;-60.7100;-55.7000;-5.0100
1202.5890;-60.6200;-55.6600;-4.9600
1202.7880;-60.6300;-55.5900;-5.0400
1202.9870;-60.6100;-55.5400;-5.0700
1203.1860;-60.5300;-55.4800;-5.0500
1203.3850;-60.4700;-55.4400;-5.0300
1203.5840;-60.4900;-55.4200;-5.0700
1203.7830;-60.4800;-55.3500;-5.1300
1203.9820;-60.3900;-55.3200;-5.0700
1204.1810;-60.3900;-55.2800;-5.1100
1204.3810;-60.3900;-55.2400;-5.1500
1204.5800;-60.3500;-55.2300;-5.1200
1204.7790;-60.3300;-55.1800;-5.1500
1204.9780;-60.3200;-55.1500;-5.1700
1205.1770;-60.3100;-55.1200;-5.1900
1205.3760;-60.2800;-55.0900;-5.1900
1205.5750;-60.2700;-55.0900;-5.1800
1205.7740;-60.2400;-55.0500;-5.1900
1205.9740;-60.1900;-55.0400;-5.1500
1206.1730;-60.1800;-55.0200;-5.1600
1206.3720;-60.1500;-54.9900;-5.1600
1206.5710;-60.1400;-54.9800;-5.1600
1206.7700;-60.0800;-54.9500;-5.1300
1206.9690;-60.0200;-54.9300;-5.0900
1207.1680;-60.0100;-54.9000;-5.1100
1207.3670;-59.9500;-54.8600;-5.0900
1207.5660;-59.9000;-54.8500;-5.0500
1207.7660;-59.8400;-54.8000;-5.0400
1207.9650;-59.8100;-54.7700;-5.0400
1208.1640;-59.7500;-54.7200;-5.0300
1208.3630;-59.6700;-54.6800;-4.9900
1208.5620;-59.6400;-54.6500;-4.9900
1208.7610;-59.5800;-54.5800;-5.0000
1208.9600;-59.5200;-54.5400;-4.9800
1209.1590;-59.4700;-54.4900;-4.9800
1209.3580;-59.3800;-54.4300;-4.9500
1209.5580;-59.3500;-54.4000;-4.9500
1209.7570;-59.3000;-54.3400;-4.9600
1209.9560;-59.2100;-54.2800;-4.9300
1210.1550;-59.1400;-54.2300;-4.9100
1210.3540;-59.0900;-54.1800;-4.9100
1210.5530;-59.0500;-54.1400;-4.9100
1210.7520;-58.9700;-54.0800;-4.8900
1210.9510;-58.9100;-54.0300;-4.8800
1211.1500;-58.8700;-54.0000;-4.8700
1211.3500;-58.8200;-53.9500;-4.8700
1211.5490;-58.7700;-53.9200;-4.8500
1211.7480;-58.7200;-53.8800;-4.8400
1211.9470;-58.6600;-53.8400;-4.8200
1212.1460;-58.6500;-53.8200;-4.8300
1212.3450;-58.6300;-53.7700;-4.8600
1212.5440;-58.6100;-53.7600;-4.8500
1212.7430;-58.5600;-53.7200;-4.8400
1212.9430;-58.5500;-53.6800;-4.8700
1213.1420;-58.5600;-53.6700;-4.8900
1213.3410;-58.5200;-53.6300;-4.8900
1213.5400;-58.5100;-53.6100;-4.9000
1213.7390;-58.5200;-53.5700;-4.9500
1213.9380;-58.5300;-53.5300;-5.0000
1214.1370;-58.5000;-53.5100;-4.9900
1214.3360;-58.4800;-53.4600;-5.0200
1214.5350;-58.5100;-53.4400;-5.0700
1214.7350;-58.5200;-53.3900;-5.1300
1214.9340;-58.4900;-53.3400;-5.1500
1215.1330;-58.4900;-53.2900;-5.2000
1215.3320;-58.4700;-53.2400;-5.2300
1215.5310;-58.4600;-53.2000;-5.2600
1215.7300;-58.4200;-53.1400;-5.2800
1215.9290;-58.3900;-53.0800;-5.3100
1216.1280;-58.3800;-53.0300;-5.3500
1216.3270;-58.3400;-52.9600;-5.3800
1216.5270;-58.3000;-52.9200;-5.3800
1216.7260;-58.2500;-52.8600;-5.3900
1216.9250;-58.2200;-52.7900;-5.4300
1217.1240;-58.1900;-52.7400;-5.4500
1217.3230;-58.1500;-52.6700;-5.4800
1217.5220;-58.0900;-52.6300;-5.4600
1217.7210;-58.0600;-52.5700;-5.4900
1217.9200;-58.0400;-52.5200;-5.5200
1218.1200;-57.9900;-52.4800;-5.5100
1218.3190;-57.9300;-52.4200;-5.5100
1218.5180;-57.9000;-52.3900;-5.5100
1218.7170;-57.8800;-52.3400;-5.5400
1218.9160;-57.8500;-52.2900;-5.5600
1219.1150;-57.8100;-52.2600;-5.5500
1219.3140;-57.7700;-52.2100;-5.5600
1219.5130;-57.7600;-52.1900;-5.5700
1219.7120;-57.7300;-52.1500;-5.5800
1219.9120;-57.6800;-52.1100;-5.5700
1220.1110;-57.6500;-52.0700;-5.5800
1220.3100;-57.6200;-52.0300;-5.5900
1220.5090;-57.5800;-52.0000;-5.5800
1220.7080;-57.5200;-51.9500;-5.5700
1220.9070;-57.4700;-51.9100;-5.5600
1221.1060;-57.4300;-51.8500;-5.5800
1221.3050;-57.3700;-51.8000;-5.5700
1221.5040;-57.3000;-51.7500;-5.5500
1221.7040;-57.2200;-51.6800;-5.5400
1221.9030;-57.1700;-51.6300;-5.5400
1222.1020;-57.1100;-51.5700;-5.5400
1222.3010;-57.0000;-51.5000;-5.5000
1222.5000;-56.9200;-51.4300;-5.4900
1222.6990;-56.8600;-51.3600;-5.5000
1222.8980;-56.7800;-51.2900;-5.4900
1223.0970;-56.7000;-51.2200;-5.4800
1223.2970;-56.6100;-51.1500;-5.4600
1223.4960;-56.5300;-51.0800;-5.4500
1223.6950;-56.4600;-51.0000;-5.4600
1223.8940;-56.3900;-50.9400;-5.4500
1224.0930;-56.3200;-50.8700;-5.4500
1224.2920;-56.2600;-50.8000;-5.4600
1224.4910;-56.2000;-50.7400;-5.4600
1224.6900;-56.1500;-50.6700;-5.4800
1224.8890;-56.0900;-50.6000;-5.4900
1225.0890;-56.0700;-50.5500;-5.5200
1225.2880;-56.0100;-50.4800;-5.5300
1225.4870;-55.9700;-50.4300;-5.5400
1225.6860;-55.9400;-50.3700;-5.5700
1225.8850;-55.9200;-50.3200;-5.6000
1226.0840;-55.9000;-50.2700;-5.6300
1226.2830;-55.8700;-50.2100;-5.6600
1226.4820;-55.8400;-50.1600;-5.6800
1226.6810;-55.8200;-50.1100;-5.7100
1226.8810;-55.8000;-50.0600;-5.7400
1227.0800;-55.7600;-50.0000;-5.7600
1227.2790;-55.7300;-49.9500;-5.7800
1227.4780;-55.7100;-49.8900;-5.8200
1227.6770;-55.6700;-49.8300;-5.8400
1227.8760;-55.6400;-49.7700;-5.8700
1228.0750;-55.6000;-49.7100;-5.8900
1228.2740;-55.5700;-49.6400;-5.9300
1228.4740;-55.5300;-49.5700;-5.9600
1228.6730;-55.4700;-49.4900;-5.9800
1228.8720;-55.4400;-49.4200;-6.0200
1229.0710;-55.3900;-49.3500;-6.0400
1229.2700;-55.3600;-49.2600;-6.1000
1229.4690;-55.3000;-49.1900;-6.1100
1229.6680;-55.2500;-49.1000;-6.1500
1229.8670;-55.2100;-49.0100;-6.2000
1230.0660;-55.1800;-48.9500;-6.2300
1230.2660;-55.1300;-48.8500;-6.2800
1230.4650;-55.0900;-48.7700;-6.3200
1230.6640;-55.0500;-48.6900;-6.3600
1230.8630;-55.0200;-48.6200;-6.4000
1231.0620;-54.9800;-48.5500;-6.4300
1231.2610;-54.9600;-48.4800;-6.4800
1231.4600;-54.9300;-48.4300;-6.5000
1231.6590;-54.8800;-48.3500;-6.5300
1231.8580;-54.8300;-48.2800;-6.5500
1232.0580;-54.8000;-48.2300;-6.5700
1232.2570;-54.7400;-48.1600;-6.5800
1232.4560;-54.6900;-48.1200;-6.5700
1232.6550;-54.6200;-48.0400;-6.5800
1232.8540;-54.5600;-47.9800;-6.5800
1233.0530;-54.5000;-47.9300;-6.5700
1233.2520;-54.4100;-47.8600;-6.5500
1233.4510;-54.3300;-47.8100;-6.5200
1233.6500;-54.2600;-47.7400;-6.5200
1233.8500;-54.1600;-47.6800;-6.4800
1234.0490;-54.0800;-47.6200;-6.4600
1234.2480;-53.9800;-47.5400;-6.4400
1234.4470;-53.8800;-47.4800;-6.4000
1234.6460;-53.7700;-47.4000;-6.3700
1234.8450;-53.6800;-47.3300;-6.3500
1235.0440;-53.5600;-47.2400;-6.3200
1235.2430;-53.4500;-47.1600;-6.2900
1235.4430;-53.3500;-47.0800;-6.2700
1235.6420;-53.2200;-46.9800;-6.2400
1235.8410;-53.1100;-46.9000;-6.2100
1236.0400;-53.0000;-46.8100;-6.1900
1236.2390;-52.8700;-46.7100;-6.1600
1236.4380;-52.7500;-46.6200;-6.1300
1236.6370;-52.6300;-46.5300;-6.1000
1236.8360;-52.5100;-46.4400;-6.0700
1237.0350;-52.3900;-46.3400;-6.0500
1237.2350;-52.2700;-46.2500;-6.0200
1237.4340;-52.1500;-46.1600;-5.9900
1237.6330;-52.0300;-46.0700;-5.9600
1237.8320;-51.9200;-46.0000;-5.9200
1238.0310;-51.8100;-45.8900;-5.9200
1238.2300;-51.7000;-45.8300;-5.8700
1238.4290;-51.6000;-45.7300;-5.8700
1238.6280;-51.5000;-45.6600;-5.8400
1238.8270;-51.4000;-45.5800;-5.8200
1239.0270;-51.3000;-45.5000;-5.8000
1239.2260;-51.2100;-45.4200;-5.7900
1239.4250;-51.1200;-45.3300;-5.7900
1239.6240;-51.0300;-45.2500;-5.7800
1239.8230;-50.9500;-45.1600;-5.7900
1240.0220;-50.8600;-45.0700;-5.7900
1240.2210;-50.7700;-44.9900;-5.7800
1240.4200;-50.6900;-44.8800;-5.8100
1240.6200;-50.6100;-44.8000;-5.8100
1240.8190;-50.5300;-44.6900;-5.8400
1241.0180;-50.4200;-44.5700;-5.8500
1241.2170;-50.3200;-44.4700;-5.8500
1241.4160;-50.2300;-44.3500;-5.8800
1241.6150;-50.1100;-44.2300;-5.8800
1241.8140;-50.0000;-44.1100;-5.8900
1242.0130;-49.8800;-43.9900;-5.8900
1242.2120;-49.7600;-43.8800;-5.8800
1242.4120;-49.6400;-43.7400;-5.9000
1242.6110;-49.4900;-43.6100;-5.8800
1242.8100;-49.3500;-43.4900;-5.8600
1243.0090;-49.1900;-43.3500;-5.8400
1243.2080;-49.0300;-43.2300;-5.8000
1243.4070;-48.8800;-43.0900;-5.7900
1243.6060;-48.7100;-42.9700;-5.7400
1243.8050;-48.5500;-42.8400;-5.7100
1244.0040;-48.3600;-42.7100;-5.6500
1244.2040;-48.1900;-42.6000;-5.5900
1244.4030;-48.0300;-42.4600;-5.5700
1244.6020;-47.8300;-42.3400;-5.4900
1244.8010;-47.6600;-42.2200;-5.4400
1245.0000;-47.4700;-42.0900;-5.3800
1245.1990;-47.2900;-41.9900;-5.3000
1245.3980;-47.1100;-41.8600;-5.2500
1245.5970;-46.9100;-41.7300;-5.1800
1245.7970;-46.7300;-41.6100;-5.1200
1245.9960;-46.5200;-41.4800;-5.0400
1246.1950;-46.3300;-41.3600;-4.9700
1246.3940;-46.1400;-41.2300;-4.9100
1246.5930;-45.9300;-41.0900;-4.8400
1246.7920;-45.7100;-40.9600;-4.7500
1246.9910;-45.5300;-40.8100;-4.7200
1247.1900;-45.3500;-40.6900;-4.6600
1247.3890;-45.1400;-40.5400;-4.6000
1247.5890;-44.9400;-40.3900;-4.5500
1247.7880;-44.7600;-40.2500;-4.5100
1247.9870;-44.5600;-40.0900;-4.4700
1248.1860;-44.3900;-39.9500;-4.4400
1248.3850;-44.2000;-39.7900;-4.4100
1248.5840;-44.0200;-39.6300;-4.3900
1248.7830;-43.8600;-39.4900;-4.3700
1248.9820;-43.7000;-39.3300;-4.3700
1249.1810;-43.5600;-39.1900;-4.3700
1249.3810;-43.4200;-39.0300;-4.3900
1249.5800;-43.2800;-38.8700;-4.4100
1249.7790;-43.1600;-38.7300;-4.4300
1249.9780;-43.0400;-38.5600;-4.4800
1250.1770;-42.9400;-38.4300;-4.5100
1250.3760;-42.8400;-38.2700;-4.5700
1250.5750;-42.7500;-38.1200;-4.6300
1250.7740;-42.6800;-37.9800;-4.7000
1250.9740;-42.6200;-37.8500;-4.7700
1251.1730;-42.5600;-37.7200;-4.8400
1251.3720;-42.5000;-37.5600;-4.9400
1251.5710;-42.4700;-37.4400;-5.0300
1251.7700;-42.4400;-37.2900;-5.1500
1251.9690;-42.4100;-37.1500;-5.2600
1252.1680;-42.4100;-37.0100;-5.4000
1252.3670;-42.3900;-36.8600;-5.5300
1252.5660;-42.4100;-36.7300;-5.6800
1252.7660;-42.4200;-36.5700;-5.8500
1252.9650;-42.4600;-36.4300;-6.0300
1253.1640;-42.5100;-36.2900;-6.2200
1253.3630;-42.5500;-36.1200;-6.4300
1253.5620;-42.6300;-35.9900;-6.6400
1253.7610;-42.7000;-35.8000;-6.9000
1253.9600;-42.7900;-35.6800;-7.1100
1254.1590;-42.8900;-35.5100;-7.3800
1254.3580;-42.9800;-35.3500;-7.6300
1254.5580;-43.0900;-35.2100;-7.8800
1254.7570;-43.1800;-35.0400;-8.1400
1254.9560;-43.2700;-34.8900;-8.3800
1255.1550;-43.3600;-34.7300;-8.6300
1255.3540;-43.4000;-34.5700;-8.8300
1255.5530;-43.4400;-34.4300;-9.0100
1255.7520;-43.4300;-34.2700;-9.1600
1255.9510;-43.3800;-34.1300;-9.2500
1256.1500;-43.3100;-33.9700;-9.3400
1256.3500;-43.1700;-33.8400;-9.3300
1256.5490;-43.0100;-33.7100;-9.3000
1256.7480;-42.7900;-33.5600;-9.2300
1256.9470;-42.5400;-33.4300;-9.1100
1257.1460;-42.2700;-33.2900;-8.9800
1257.3450;-41.9600;-33.1500;-8.8100
1257.5440;-41.6400;-33.0300;-8.6100
1257.7430;-41.2800;-32.8800;-8.4000
1257.9430;-40.9200;-32.7500;-8.1700
1258.1420;-40.5500;-32.6100;-7.9400
1258.3410;-40.1600;-32.4700;-7.6900
1258.5400;-39.7800;-32.3500;-7.4300
1258.7390;-39.3700;-32.2000;-7.1700
1258.9380;-38.9600;-32.0700;-6.8900
1259.1370;-38.5800;-31.9200;-6.6600
1259.3360;-38.1700;-31.7800;-6.3900
1259.5350;-37.7900;-31.6400;-6.1500
1259.7350;-37.3900;-31.4900;-5.9000
1259.9340;-37.0100;-31.3500;-5.6600
1260.1330;-36.6500;-31.2000;-5.4500
1260.3320;-36.2800;-31.0600;-5.2200
1260.5310;-35.8800;-30.9200;-4.9600
1260.7300;-35.5900;-30.7700;-4.8200
1260.9290;-35.2700;-30.6400;-4.6300
1261.1280;-34.9600;-30.4900;-4.4700
1261.3270;-34.6600;-30.3600;-4.3000
1261.5270;-34.4000;-30.2300;-4.1700
1261.7260;-34.1300;-30.1000;-4.0300
1261.9250;-33.8800;-29.9700;-3.9100
1262.1240;-33.6400;-29.8300;-3.8100
1262.3230;-33.4200;-29.7100;-3.7100
1262.5220;-33.2400;-29.5900;-3.6500
1262.7210;-33.0400;-29.4600;-3.5800
1262.9200;-32.8700;-29.3500;-3.5200
1263.1200;-32.7100;-29.2200;-3.4900
1263.3190;-32.5600;-29.1000;-3.4600
1263.5180;-32.4500;-28.9800;-3.4700
1263.7170;-32.3200;-28.8600;-3.4600
1263.9160;-32.2300;-28.7400;-3.4900
1264.1150;-32.1300;-28.6000;-3.5300
1264.3140;-32.0600;-28.4800;-3.5800
1264.5130;-32.0300;-28.3500;-3.6800
1264.7120;-31.9800;-28.2200;-3.7600
1264.9120;-31.9600;-28.1000;-3.8600
1265.1110;-31.9500;-27.9600;-3.9900
1265.3100;-31.9600;-27.8300;-4.1300
1265.5090;-32.0100;-27.7000;-4.3100
1265.7080;-32.0400;-27.5700;-4.4700
1265.9070;-32.1100;-27.4400;-4.6700
1266.1060;-32.1700;-27.3000;-4.8700
1266.3050;-32.2600;-27.1800;-5.0800
1266.5040;-32.3800;-27.0500;-5.3300
1266.7040;-32.4800;-26.9300;-5.5500
1266.9030;-32.6100;-26.8000;-5.8100
1267.1020;-32.7200;-26.6700;-6.0500
1267.3010;-32.8600;-26.5600;-6.3000
1267.5000;-33.0000;-26.4300;-6.5700
1267.6990;-33.1200;-26.3200;-6.8000
1267.8980;-33.2500;-26.2000;-7.0500
1268.0970;-33.3600;-26.0700;-7.2900
1268.2970;-33.4400;-25.9700;-7.4700
1268.4960;-33.5200;-25.8600;-7.6600
1268.6950;-33.5500;-25.7500;-7.8000
1268.8940;-33.5600;-25.6200;-7.9400
1269.0930;-33.5100;-25.5100;-8.0000
1269.2920;-33.4300;-25.3900;-8.0400
1269.4910;-33.3000;-25.2800;-8.0200
1269.6900;-33.1100;-25.1700;-7.9400
1269.8890;-32.8900;-25.0400;-7.8500
1270.0890;-32.6000;-24.9200;-7.6800
1270.2880;-32.2800;-24.8000;-7.4800
1270.4870;-31.9200;-24.6900;-7.2300
1270.6860;-31.5200;-24.5700;-6.9500
1270.8850;-31.1000;-24.4400;-6.6600
1271.0840;-30.6500;-24.3200;-6.3300
1271.2830;-30.2000;-24.2000;-6.0000
1271.4820;-29.7400;-24.0800;-5.6600
1271.6810;-29.2800;-23.9700;-5.3100
1271.8810;-28.8400;-23.8300;-5.0100
1272.0800;-28.4000;-23.7300;-4.6700
1272.2790;-27.9800;-23.6100;-4.3700
1272.4780;-27.5600;-23.4900;-4.0700
1272.6770;-27.1600;-23.3900;-3.7700
1272.8760;-26.7900;-23.2700;-3.5200
1273.0750;-26.4200;-23.1700;-3.2500
1273.2740;-26.0200;-23.0600;-2.9600
1273.4740;-25.7400;-22.9500;-2.7900
1273.6730;-25.4300;-22.8600;-2.5700
1273.8720;-25.1300;-22.7500;-2.3800
1274.0710;-24.8400;-22.6600;-2.1800
1274.2700;-24.5700;-22.5500;-2.0200
1274.4690;-24.3100;-22.4500;-1.8600
1274.6680;-24.0700;-22.3600;-1.7100
1274.8670;-23.8200;-22.2500;-1.5700
1275.0660;-23.6000;-22.1700;-1.4300
1275.2660;-23.4000;-22.0600;-1.3400
1275.4650;-23.1900;-21.9600;-1.2300
1275.6640;-23.0100;-21.8700;-1.1400
1275.8630;-22.8300;-21.7700;-1.0600
1276.0620;-22.6700;-21.6800;-0.9900
1276.2610;-22.5200;-21.5800;-0.9400
1276.4600;-22.3800;-21.4800;-0.9000
1276.6590;-22.2500;-21.3800;-0.8700
1276.8580;-22.1300;-21.2800;-0.8500
1277.0580;-22.0400;-21.2000;-0.8400
1277.2570;-21.9500;-21.0900;-0.8600
1277.4560;-21.8800;-21.0100;-0.8700
1277.6550;-21.8400;-20.9200;-0.9200
1277.8540;-21.7800;-20.8300;-0.9500
1278.0530;-21.7600;-20.7500;-1.0100
1278.2520;-21.7400;-20.6600;-1.0800
1278.4510;-21.7300;-20.5800;-1.1500
1278.6500;-21.7500;-20.4900;-1.2600
1278.8500;-21.7700;-20.4100;-1.3600
1279.0490;-21.8100;-20.3400;-1.4700
1279.2480;-21.8500;-20.2500;-1.6000
1279.4470;-21.9000;-20.1900;-1.7100
1279.6460;-21.9800;-20.1000;-1.8800
1279.8450;-22.0500;-20.0200;-2.0300
1280.0440;-22.1600;-19.9500;-2.2100
1280.2430;-22.2500;-19.8700;-2.3800
1280.4430;-22.3700;-19.8100;-2.5600
1280.6420;-22.5100;-19.7200;-2.7900
1280.8410;-22.6400;-19.6400;-3.0000
1281.0400;-22.8000;-19.5700;-3.2300
1281.2390;-22.9600;-19.4900;-3.4700
1281.4380;-23.1400;-19.4200;-3.7200
1281.6370;-23.3200;-19.3300;-3.9900
1281.8360;-23.5100;-19.2500;-4.2600
1282.0350;-23.7200;-19.1700;-4.5500
1282.2350;-23.9100;-19.0800;-4.8300
1282.4340;-24.1100;-19.0200;-5.0900
1282.6330;-24.3100;-18.9400;-5.3700
1282.8320;-24.4900;-18.8600;-5.6300
1283.0310;-24.6600;-18.7800;-5.8800
1283.2300;-24.7900;-18.7000;-6.0900
1283.4290;-24.9000;-18.6400;-6.2600
1283.6280;-24.9800;-18.5500;-6.4300
1283.8270;-25.0100;-18.4900;-6.5200
1284.0270;-25.0100;-18.4100;-6.6000
1284.2260;-24.9300;-18.3300;-6.6000
1284.4250;-24.8300;-18.2800;-6.5500
1284.6240;-24.6700;-18.2000;-6.4700
1284.8230;-24.4700;-18.1300;-6.3400
1285.0220;-24.2400;-18.0500;-6.1900
1285.2210;-23.9600;-17.9800;-5.9800
1285.4200;-23.6700;-17.9200;-5.7500
1285.6200;-23.3500;-17.8400;-5.5100
1285.8190;-23.0200;-17.7800;-5.2400
1286.0180;-22.6800;-17.7000;-4.9800
1286.2170;-22.3200;-17.6300;-4.6900
1286.4160;-21.9800;-17.5700;-4.4100
1286.6150;-21.6300;-17.5000;-4.1300
1286.8140;-21.2800;-17.4400;-3.8400
1287.0130;-20.9400;-17.3600;-3.5800
1287.2120;-20.6000;-17.2900;-3.3100
1287.4120;-20.2900;-17.2200;-3.0700
1287.6110;-19.9600;-17.1500;-2.8100
1287.8100;-19.6600;-17.1000;-2.5600
1288.0090;-19.3800;-17.0200;-2.3600
1288.2080;-19.1000;-16.9600;-2.1400
1288.4070;-18.8400;-16.9000;-1.9400
1288.6060;-18.5800;-16.8300;-1.7500
1288.8050;-18.3500;-16.7800;-1.5700
1289.0040;-18.1300;-16.7100;-1.4200
1289.2040;-17.9200;-16.6600;-1.2600
1289.4030;-17.7300;-16.6000;-1.1300
1289.6020;-17.5400;-16.5500;-0.9900
1289.8010;-17.3700;-16.5000;-0.8700
1290.0000;-17.2000;-16.4300;-0.7700
1290.1990;-17.0500;-16.3900;-0.6600
1290.3980;-16.9300;-16.3300;-0.6000
1290.5970;-16.8000;-16.2900;-0.5100
1290.7970;-16.6900;-16.2500;-0.4400
1290.9960;-16.5700;-16.1800;-0.3900
1291.1950;-16.4700;-16.1400;-0.3300
1291.3940;-16.3900;-16.0800;-0.3100
1291.5930;-16.2900;-16.0400;-0.2500
1291.7920;-16.2300;-15.9800;-0.2500
1291.9910;-16.1500;-15.9400;-0.2100
1292.1900;-16.1200;-15.8900;-0.2300
1292.3890;-16.0700;-15.8500;-0.2200
1292.5890;-16.0300;-15.8000;-0.2300
1292.7880;-16.0000;-15.7500;-0.2500
1292.9870;-15.9700;-15.7100;-0.2600
1293.1860;-15.9700;-15.6600;-0.3100
1293.3850;-15.9500;-15.6200;-0.3300
1293.5840;-15.9400;-15.5800;-0.3600
1293.7830;-15.9400;-15.5300;-0.4100
1293.9820;-15.9400;-15.5000;-0.4400
1294.1810;-15.9700;-15.4500;-0.5200
1294.3810;-15.9700;-15.4200;-0.5500
1294.5800;-15.9800;-15.3800;-0.6000
1294.7790;-16.0000;-15.3400;-0.6600
1294.9780;-16.0100;-15.3100;-0.7000
1295.1770;-16.0400;-15.2700;-0.7700
1295.3760;-16.0500;-15.2400;-0.8100
1295.5750;-16.0600;-15.2000;-0.8600
1295.7740;-16.0600;-15.1600;-0.9000
1295.9740;-16.0700;-15.1300;-0.9400
1296.1730;-16.0800;-15.0800;-1.0000
1296.3720;-16.0900;-15.0600;-1.0300
1296.5710;-16.0900;-15.0200;-1.0700
1296.7700;-16.0700;-14.9800;-1.0900
1296.9690;-16.0700;-14.9600;-1.1100
1297.1680;-16.0600;-14.9300;-1.1300
1297.3670;-16.0400;-14.9000;-1.1400
1297.5660;-16.0300;-14.8500;-1.1800
1297.7660;-15.9900;-14.8200;-1.1700
1297.9650;-15.9700;-14.8000;-1.1700
1298.1640;-15.9400;-14.7600;-1.1800
1298.3630;-15.9100;-14.7400;-1.1700
1298.5620;-15.8800;-14.7000;-1.1800
1298.7610;-15.8400;-14.6700;-1.1700
1298.9600;-15.8100;-14.6500;-1.1600
1299.1590;-15.7700;-14.6200;-1.1500
1299.3580;-15.7400;-14.6000;-1.1400
1299.5580;-15.7100;-14.5600;-1.1500
1299.7570;-15.6700;-14.5400;-1.1300
1299.9560;-15.6500;-14.5200;-1.1300
1300.1550;-15.6200;-14.4900;-1.1300
1300.3540;-15.6000;-14.4800;-1.1200
1300.5530;-15.5700;-14.4300;-1.1400
1300.7520;-15.5500;-14.4100;-1.1400
1300.9510;-15.5500;-14.3900;-1.1600
1301.1500;-15.5500;-14.3800;-1.1700
1301.3500;-15.5600;-14.3700;-1.1900
1301.5490;-15.5800;-14.3500;-1.2300
1301.7480;-15.5900;-14.3400;-1.2500
1301.9470;-15.6300;-14.3200;-1.3100
1302.1460;-15.6700;-14.3100;-1.3600
1302.3450;-15.7200;-14.3000;-1.4200
1302.5440;-15.7800;-14.2800;-1.5000
1302.7430;-15.8500;-14.2800;-1.5700
1302.9430;-15.9400;-14.2600;-1.6800
1303.1420;-16.0300;-14.2500;-1.7800
1303.3410;-16.1400;-14.2400;-1.9000
1303.5400;-16.2600;-14.2400;-2.0200
1303.7390;-16.4000;-14.2400;-2.1600
1303.9380;-16.5600;-14.2100;-2.3500
1304.1370;-16.7400;-14.2200;-2.5200
1304.3360;-16.9300;-14.2100;-2.7200
1304.5350;-17.1300;-14.2100;-2.9200
1304.7350;-17.3500;-14.2200;-3.1300
1304.9340;-17.6000;-14.2100;-3.3900
1305.1330;-17.8500;-14.2200;-3.6300
1305.3320;-18.1500;-14.2100;-3.9400
1305.5310;-18.5100;-14.2200;-4.2900
1305.7300;-18.7900;-14.2300;-4.5600
1305.9290;-19.1400;-14.2200;-4.9200
1306.1280;-19.5300;-14.2400;-5.2900
1306.3270;-19.9400;-14.2400;-5.7000
1306.5270;-20.3900;-14.2500;-6.1400
1306.7260;-20.8800;-14.2600;-6.6200
1306.9250;-21.3900;-14.2600;-7.1300
1307.1240;-21.9700;-14.2800;-7.6900
1307.3230;-22.5700;-14.2800;-8.2900
1307.5220;-23.2300;-14.3000;-8.9300
1307.7210;-23.9400;-14.3100;-9.6300
1307.9200;-24.6700;-14.3100;-10.3600
1308.1200;-25.4800;-14.3500;-11.1300
1308.3190;-26.2800;-14.3500;-11.9300
1308.5180;-27.1000;-14.3700;-12.7300
1308.7170;-27.8700;-14.3800;-13.4900
1308.9160;-28.6500;-14.3900;-14.2600
1309.1150;-29.0000;-14.4300;-14.5700
1309.3140;-29.1800;-14.4300;-14.7500
1309.5130;-29.0700;-14.4700;-14.6000
1309.7120;-28.6700;-14.4800;-14.1900
1309.9120;-28.0700;-14.5000;-13.5700
