Wavelength;Intensity_Meas;Intensity_Ref;Difference_dB
1200.0000;-61.1200;-56.1700;-4.9500
1200.1990;-61.0800;-56.1300;-4.9500
1200.3980;-61.0300;-56.1000;-4.9300
1200.5970;-61.0400;-56.0800;-4.9600
1200.7970;-61.0600;-56.0500;-5.0100
1200.9960;-61.0000;-56.0200;-4.9800
1201.1950;-60.9900;-55.9700;-5.0200
1201.3940;-60.9800;-55.9300;-5.0500
1201.5930;-60.9100;-55.9000;-5.0100
1201.7920;-60.8700;-55.8500;-5.0200
1201.9910;-60.8800;-55.8100;-5.0700
1202.1900;-60.8400;-55.7500;-5.0900
1202.3890;-60.7700;-55.7000;-5.0700
1202.5890;-60.7000;-55.6600;-5.0400
1202.7880;-60.7500;-55.5900;-5.1600
1202.9870;-60.7000;-55.5400;-5.1600
1203.1860;-60.6100;-55.4800;-5.1300
1203.3850;-60.5800;-55.4400;-5.1400
1203.5840;-60.6100;-55.4200;-5.1900
1203.7830;-60.6300;-55.3500;-5.2800
1203.9820;-60.5600;-55.3200;-5.2400
1204.1810;-60.4900;-55.2800;-5.2100
1204.3810;-60.5500;-55.2400;-5.3100
1204.5800;-60.5500;-55.2300;-5.3200
1204.7790;-60.4800;-55.1800;-5.3000
1204.9780;-60.4800;-55.1500;-5.3300
1205.1770;-60.4600;-55.1200;-5.3400
1205.3760;-60.4600;-55.0900;-5.3700
1205.5750;-60.4400;-55.0900;-5.3500
1205.7740;-60.4200;-55.0500;-5.3700
1205.9740;-60.3800;-55.0400;-5.3400
1206.1730;-60.3600;-55.0200;-5.3400
1206.3720;-60.3500;-54.9900;-5.3600
1206.5710;-60.3000;-54.9800;-5.3200
1206.7700;-60.2400;-54.9500;-5.2900
1206.9690;-60.2100;-54.9300;-5.2800
1207.1680;-60.2100;-54.9000;-5.3100
1207.3670;-60.1400;-54.8600;-5.2800
1207.5660;-60.0700;-54.8500;-5.2200
1207.7660;-60.0500;-54.8000;-5.2500
1207.9650;-60.0100;-54.7700;-5.2400
1208.1640;-59.9300;-54.7200;-5.2100
1208.3630;-59.8700;-54.6800;-5.1900
1208.5620;-59.8000;-54.6500;-5.1500
1208.7610;-59.7800;-54.5800;-5.2000
1208.9600;-59.7200;-54.5400;-5.1800
1209.1590;-59.6400;-54.4900;-5.1500
1209.3580;-59.5500;-54.4300;-5.1200
1209.5580;-59.5200;-54.4000;-5.1200
1209.7570;-59.4700;-54.3400;-5.1300
1209.9560;-59.3700;-54.2800;-5.0900
1210.1550;-59.2800;-54.2300;-5.0500
1210.3540;-59.2400;-54.1800;-5.0600
1210.5530;-59.1900;-54.1400;-5.0500
1210.7520;-59.1000;-54.0800;-5.0200
1210.9510;-59.0100;-54.0300;-4.9800
1211.1500;-58.9700;-54.0000;-4.9700
1211.3500;-58.9500;-53.9500;-5.0000
1211.5490;-58.8800;-53.9200;-4.9600
1211.7480;-58.8100;-53.8800;-4.9300
1211.9470;-58.7600;-53.8400;-4.9200
1212.1460;-58.7300;-53.8200;-4.9100
1212.3450;-58.7100;-53.7700;-4.9400
1212.5440;-58.6500;-53.7600;-4.8900
1212.7430;-58.6100;-53.7200;-4.8900
1212.9430;-58.6200;-53.6800;-4.9400
1213.1420;-58.6000;-53.6700;-4.9300
1213.3410;-58.5700;-53.6300;-4.9400
1213.5400;-58.5400;-53.6100;-4.9300
1213.7390;-58.5700;-53.5700;-5.0000
1213.9380;-58.5600;-53.5300;-5.0300
1214.1370;-58.5200;-53.5100;-5.0100
1214.3360;-58.5100;-53.4600;-5.0500
1214.5350;-58.5200;-53.4400;-5.0800
1214.7350;-58.5600;-53.3900;-5.1700
1214.9340;-58.5000;-53.3400;-5.1600
1215.1330;-58.4700;-53.2900;-5.1800
1215.3320;-58.4700;-53.2400;-5.2300
1215.5310;-58.4900;-53.2000;-5.2900
1215.7300;-58.4600;-53.1400;-5.3200
1215.9290;-58.4100;-53.0800;-5.3300
1216.1280;-58.3900;-53.0300;-5.3600
1216.3270;-58.4000;-52.9600;-5.4400
1216.5270;-58.3600;-52.9200;-5.4400
1216.7260;-58.3000;-52.8600;-5.4400
1216.9250;-58.2500;-52.7900;-5.4600
1217.1240;-58.2400;-52.7400;-5.5000
1217.3230;-58.2100;-52.6700;-5.5400
1217.5220;-58.1500;-52.6300;-5.5200
1217.7210;-58.1200;-52.5700;-5.5500
1217.9200;-58.1200;-52.5200;-5.6000
1218.1200;-58.1000;-52.4800;-5.6200
1218.3190;-58.0400;-52.4200;-5.6200
1218.5180;-58.0000;-52.3900;-5.6100
1218.7170;-58.0100;-52.3400;-5.6700
1218.9160;-58.0100;-52.2900;-5.7200
1219.1150;-57.9400;-52.2600;-5.6800
1219.3140;-57.9300;-52.2100;-5.7200
1219.5130;-57.9300;-52.1900;-5.7400
1219.7120;-57.9300;-52.1500;-5.7800
1219.9120;-57.8700;-52.1100;-5.7600
1220.1110;-57.8400;-52.0700;-5.7700
1220.3100;-57.8500;-52.0300;-5.8200
1220.5090;-57.8300;-52.0000;-5.8300
1220.7080;-57.7900;-51.9500;-5.8400
1220.9070;-57.7300;-51.9100;-5.8200
1221.1060;-57.6900;-51.8500;-5.8400
1221.3050;-57.6800;-51.8000;-5.8800
1221.5040;-57.6000;-51.7500;-5.8500
1221.7040;-57.5400;-51.6800;-5.8600
1221.9030;-57.4900;-51.6300;-5.8600
1222.1020;-57.4300;-51.5700;-5.8600
1222.3010;-57.3700;-51.5000;-5.8700
1222.5000;-57.2600;-51.4300;-5.8300
1222.6990;-57.2000;-51.3600;-5.8400
1222.8980;-57.1400;-51.2900;-5.8500
1223.0970;-57.0500;-51.2200;-5.8300
1223.2970;-56.9700;-51.1500;-5.8200
1223.4960;-56.8800;-51.0800;-5.8000
1223.6950;-56.8300;-51.0000;-5.8300
1223.8940;-56.7500;-50.9400;-5.8100
1224.0930;-56.6600;-50.8700;-5.7900
1224.2920;-56.6100;-50.8000;-5.8100
1224.4910;-56.5500;-50.7400;-5.8100
1224.6900;-56.4900;-50.6700;-5.8200
1224.8890;-56.4100;-50.6000;-5.8100
1225.0890;-56.3700;-50.5500;-5.8200
1225.2880;-56.3200;-50.4800;-5.8400
1225.4870;-56.2500;-50.4300;-5.8200
1225.6860;-56.2200;-50.3700;-5.8500
1225.8850;-56.1800;-50.3200;-5.8600
1226.0840;-56.1400;-50.2700;-5.8700
1226.2830;-56.1100;-50.2100;-5.9000
1226.4820;-56.0400;-50.1600;-5.8800
1226.6810;-56.0100;-50.1100;-5.9000
1226.8810;-55.9800;-50.0600;-5.9200
1227.0800;-55.9200;-50.0000;-5.9200
1227.2790;-55.8700;-49.9500;-5.9200
1227.4780;-55.8200;-49.8900;-5.9300
1227.6770;-55.8000;-49.8300;-5.9700
1227.8760;-55.7100;-49.7700;-5.9400
1228.0750;-55.6500;-49.7100;-5.9400
1228.2740;-55.6100;-49.6400;-5.9700
1228.4740;-55.5400;-49.5700;-5.9700
1228.6730;-55.4900;-49.4900;-6.0000
1228.8720;-55.4200;-49.4200;-6.0000
1229.0710;-55.3600;-49.3500;-6.0100
1229.2700;-55.3200;-49.2600;-6.0600
1229.4690;-55.2400;-49.1900;-6.0500
1229.6680;-55.1800;-49.1000;-6.0800
1229.8670;-55.1300;-49.0100;-6.1200
1230.0660;-55.0800;-48.9500;-6.1300
1230.2660;-55.0300;-48.8500;-6.1800
1230.4650;-54.9500;-48.7700;-6.1800
1230.6640;-54.9200;-48.6900;-6.2300
1230.8630;-54.8900;-48.6200;-6.2700
1231.0620;-54.8400;-48.5500;-6.2900
1231.2610;-54.8200;-48.4800;-6.3400
1231.4600;-54.7800;-48.4300;-6.3500
1231.6590;-54.7500;-48.3500;-6.4000
1231.8580;-54.7000;-48.2800;-6.4200
1232.0580;-54.6500;-48.2300;-6.4200
1232.2570;-54.6300;-48.1600;-6.4700
1232.4560;-54.5800;-48.1200;-6.4600
1232.6550;-54.5200;-48.0400;-6.4800
1232.8540;-54.4600;-47.9800;-6.4800
1233.0530;-54.4100;-47.9300;-6.4800
1233.2520;-54.3500;-47.8600;-6.4900
1233.4510;-54.2600;-47.8100;-6.4500
1233.6500;-54.2100;-47.7400;-6.4700
1233.8500;-54.1300;-47.6800;-6.4500
1234.0490;-54.0500;-47.6200;-6.4300
1234.2480;-53.9600;-47.5400;-6.4200
1234.4470;-53.8700;-47.4800;-6.3900
1234.6460;-53.8000;-47.4000;-6.4000
1234.8450;-53.6900;-47.3300;-6.3600
1235.0440;-53.5900;-47.2400;-6.3500
1235.2430;-53.5000;-47.1600;-6.3400
1235.4430;-53.3900;-47.0800;-6.3100
1235.6420;-53.2900;-46.9800;-6.3100
1235.8410;-53.1700;-46.9000;-6.2700
1236.0400;-53.0800;-46.8100;-6.2700
1236.2390;-52.9600;-46.7100;-6.2500
1236.4380;-52.8300;-46.6200;-6.2100
1236.6370;-52.7300;-46.5300;-6.2000
1236.8360;-52.6100;-46.4400;-6.1700
1237.0350;-52.5000;-46.3400;-6.1600
1237.2350;-52.3800;-46.2500;-6.1300
1237.4340;-52.2500;-46.1600;-6.0900
1237.6330;-52.1600;-46.0700;-6.0900
1237.8320;-52.0400;-46.0000;-6.0400
1238.0310;-51.9200;-45.8900;-6.0300
1238.2300;-51.8200;-45.8300;-5.9900
1238.4290;-51.7100;-45.7300;-5.9800
1238.6280;-51.6300;-45.6600;-5.9700
1238.8270;-51.5100;-45.5800;-5.9300
1239.0270;-51.4300;-45.5000;-5.9300
1239.2260;-51.3300;-45.4200;-5.9100
1239.4250;-51.2400;-45.3300;-5.9100
1239.6240;-51.1700;-45.2500;-5.9200
1239.8230;-51.0800;-45.1600;-5.9200
1240.0220;-51.0100;-45.0700;-5.9400
1240.2210;-50.9200;-44.9900;-5.9300
1240.4200;-50.8400;-44.8800;-5.9600
1240.6200;-50.7800;-44.8000;-5.9800
1240.8190;-50.6900;-44.6900;-6.0000
1241.0180;-50.6000;-44.5700;-6.0300
1241.2170;-50.5100;-44.4700;-6.0400
1241.4160;-50.4200;-44.3500;-6.0700
1241.6150;-50.3200;-44.2300;-6.0900
1241.8140;-50.2100;-44.1100;-6.1000
1242.0130;-50.1100;-43.9900;-6.1200
1242.2120;-50.0000;-43.8800;-6.1200
1242.4120;-49.8700;-43.7400;-6.1300
1242.6110;-49.7500;-43.6100;-6.1400
1242.8100;-49.6200;-43.4900;-6.1300
1243.0090;-49.4900;-43.3500;-6.1400
1243.2080;-49.3400;-43.2300;-6.1100
1243.4070;-49.2000;-43.0900;-6.1100
1243.6060;-49.0600;-42.9700;-6.0900
1243.8050;-48.9000;-42.8400;-6.0600
1244.0040;-48.7400;-42.7100;-6.0300
1244.2040;-48.5800;-42.6000;-5.9800
1244.4030;-48.4200;-42.4600;-5.9600
1244.6020;-48.2600;-42.3400;-5.9200
1244.8010;-48.0800;-42.2200;-5.8600
1245.0000;-47.9200;-42.0900;-5.8300
1245.1990;-47.7400;-41.9900;-5.7500
1245.3980;-47.5600;-41.8600;-5.7000
1245.5970;-47.3800;-41.7300;-5.6500
1245.7970;-47.1800;-41.6100;-5.5700
1245.9960;-46.9800;-41.4800;-5.5000
1246.1950;-46.7700;-41.3600;-5.4100
1246.3940;-46.5600;-41.2300;-5.3300
1246.5930;-46.3600;-41.0900;-5.2700
1246.7920;-46.1300;-40.9600;-5.1700
1246.9910;-45.9000;-40.8100;-5.0900
1247.1900;-45.6400;-40.6900;-4.9500
1247.3890;-45.4600;-40.5400;-4.9200
1247.5890;-45.2100;-40.3900;-4.8200
1247.7880;-44.9900;-40.2500;-4.7400
1247.9870;-44.7600;-40.0900;-4.6700
1248.1860;-44.5300;-39.9500;-4.5800
1248.3850;-44.3200;-39.7900;-4.5300
1248.5840;-44.0900;-39.6300;-4.4600
1248.7830;-43.8800;-39.4900;-4.3900
1248.9820;-43.6800;-39.3300;-4.3500
1249.1810;-43.4700;-39.1900;-4.2800
1249.3810;-43.2900;-39.0300;-4.2600
1249.5800;-43.0900;-38.8700;-4.2200
1249.7790;-42.9200;-38.7300;-4.1900
1249.9780;-42.7500;-38.5600;-4.1900
1250.1770;-42.5800;-38.4300;-4.1500
1250.3760;-42.4300;-38.2700;-4.1600
1250.5750;-42.2700;-38.1200;-4.1500
1250.7740;-42.1300;-37.9800;-4.1500
1250.9740;-42.0200;-37.8500;-4.1700
1251.1730;-41.8900;-37.7200;-4.1700
1251.3720;-41.7900;-37.5600;-4.2300
1251.5710;-41.6900;-37.4400;-4.2500
1251.7700;-41.5900;-37.2900;-4.3000
1251.9690;-41.5000;-37.1500;-4.3500
1252.1680;-41.4200;-37.0100;-4.4100
1252.3670;-41.3600;-36.8600;-4.5000
1252.5660;-41.3000;-36.7300;-4.5700
1252.7660;-41.2600;-36.5700;-4.6900
1252.9650;-41.2400;-36.4300;-4.8100
1253.1640;-41.2100;-36.2900;-4.9200
1253.3630;-41.2200;-36.1200;-5.1000
1253.5620;-41.2200;-35.9900;-5.2300
1253.7610;-41.2400;-35.8000;-5.4400
1253.9600;-41.2900;-35.6800;-5.6100
1254.1590;-41.3300;-35.5100;-5.8200
1254.3580;-41.4100;-35.3500;-6.0600
1254.5580;-41.4800;-35.2100;-6.2700
1254.7570;-41.5700;-35.0400;-6.5300
1254.9560;-41.6600;-34.8900;-6.7700
1255.1550;-41.7700;-34.7300;-7.0400
1255.3540;-41.8900;-34.5700;-7.3200
1255.5530;-42.0000;-34.4300;-7.5700
1255.7520;-42.1100;-34.2700;-7.8400
1255.9510;-42.2100;-34.1300;-8.0800
1256.1500;-42.3200;-33.9700;-8.3500
1256.3500;-42.4200;-33.8400;-8.5800
1256.5490;-42.4900;-33.7100;-8.7800
1256.7480;-42.5500;-33.5600;-8.9900
1256.9470;-42.5800;-33.4300;-9.1500
1257.1460;-42.5800;-33.2900;-9.2900
1257.3450;-42.5600;-33.1500;-9.4100
1257.5440;-42.5000;-33.0300;-9.4700
1257.7430;-42.4100;-32.8800;-9.5300
1257.9430;-42.2500;-32.7500;-9.5000
1258.1420;-42.0800;-32.6100;-9.4700
1258.3410;-41.8500;-32.4700;-9.3800
1258.5400;-41.5800;-32.3500;-9.2300
1258.7390;-41.2800;-32.2000;-9.0800
1258.9380;-40.9100;-32.0700;-8.8400
1259.1370;-40.5500;-31.9200;-8.6300
1259.3360;-40.1500;-31.7800;-8.3700
1259.5350;-39.7300;-31.6400;-8.0900
1259.7350;-39.3000;-31.4900;-7.8100
1259.9340;-38.8500;-31.3500;-7.5000
1260.1330;-38.4200;-31.2000;-7.2200
1260.3320;-37.9800;-31.0600;-6.9200
1260.5310;-37.5400;-30.9200;-6.6200
1260.7300;-37.1200;-30.7700;-6.3500
1260.9290;-36.7000;-30.6400;-6.0600
1261.1280;-36.2900;-30.4900;-5.8000
1261.3270;-35.8400;-30.3600;-5.4800
1261.5270;-35.5400;-30.2300;-5.3100
1261.7260;-35.1900;-30.1000;-5.0900
1261.9250;-34.8400;-29.9700;-4.8700
1262.1240;-34.5300;-29.8300;-4.7000
1262.3230;-34.2100;-29.7100;-4.5000
1262.5220;-33.9300;-29.5900;-4.3400
1262.7210;-33.6500;-29.4600;-4.1900
1262.9200;-33.3900;-29.3500;-4.0400
1263.1200;-33.1500;-29.2200;-3.9300
1263.3190;-32.9100;-29.1000;-3.8100
1263.5180;-32.7000;-28.9800;-3.7200
1263.7170;-32.5000;-28.8600;-3.6400
1263.9160;-32.3100;-28.7400;-3.5700
1264.1150;-32.1500;-28.6000;-3.5500
1264.3140;-31.9800;-28.4800;-3.5000
1264.5130;-31.8500;-28.3500;-3.5000
1264.7120;-31.7200;-28.2200;-3.5000
1264.9120;-31.6100;-28.1000;-3.5100
1265.1110;-31.5200;-27.9600;-3.5600
1265.3100;-31.4300;-27.8300;-3.6000
1265.5090;-31.3800;-27.7000;-3.6800
1265.7080;-31.3400;-27.5700;-3.7700
1265.9070;-31.3100;-27.4400;-3.8700
1266.1060;-31.3200;-27.3000;-4.0200
1266.3050;-31.3200;-27.1800;-4.1400
1266.5040;-31.3600;-27.0500;-4.3100
1266.7040;-31.4000;-26.9300;-4.4700
1266.9030;-31.4600;-26.8000;-4.6600
1267.1020;-31.5600;-26.6700;-4.8900
1267.3010;-31.6500;-26.5600;-5.0900
1267.5000;-31.7800;-26.4300;-5.3500
1267.6990;-31.9100;-26.3200;-5.5900
1267.8980;-32.0600;-26.2000;-5.8600
1268.0970;-32.2500;-26.0700;-6.1800
1268.2970;-32.4200;-25.9700;-6.4500
1268.4960;-32.6300;-25.8600;-6.7700
1268.6950;-32.8400;-25.7500;-7.0900
1268.8940;-33.0500;-25.6200;-7.4300
1269.0930;-33.2800;-25.5100;-7.7700
1269.2920;-33.4900;-25.3900;-8.1000
1269.4910;-33.7100;-25.2800;-8.4300
1269.6900;-33.9000;-25.1700;-8.7300
1269.8890;-34.0700;-25.0400;-9.0300
1270.0890;-34.2000;-24.9200;-9.2800
1270.2880;-34.2500;-24.8000;-9.4500
1270.4870;-34.2700;-24.6900;-9.5800
1270.6860;-34.1700;-24.5700;-9.6000
1270.8850;-34.0000;-24.4400;-9.5600
1271.0840;-33.7600;-24.3200;-9.4400
1271.2830;-33.4200;-24.2000;-9.2200
1271.4820;-33.0300;-24.0800;-8.9500
1271.6810;-32.5700;-23.9700;-8.6000
1271.8810;-32.0900;-23.8300;-8.2600
1272.0800;-31.5900;-23.7300;-7.8600
1272.2790;-31.0600;-23.6100;-7.4500
1272.4780;-30.5600;-23.4900;-7.0700
1272.6770;-30.0300;-23.3900;-6.6400
1272.8760;-29.5300;-23.2700;-6.2600
1273.0750;-29.0300;-23.1700;-5.8600
1273.2740;-28.5500;-23.0600;-5.4900
1273.4740;-28.0900;-22.9500;-5.1400
1273.6730;-27.6300;-22.8600;-4.7700
1273.8720;-27.2100;-22.7500;-4.4600
1274.0710;-26.7900;-22.6600;-4.1300
1274.2700;-26.3900;-22.5500;-3.8400
1274.4690;-25.9400;-22.4500;-3.4900
1274.6680;-25.6400;-22.3600;-3.2800
1274.8670;-25.2900;-22.2500;-3.0400
1275.0660;-24.9400;-22.1700;-2.7700
1275.2660;-24.6200;-22.0600;-2.5600
1275.4650;-24.3100;-21.9600;-2.3500
1275.6640;-24.0100;-21.8700;-2.1400
1275.8630;-23.7400;-21.7700;-1.9700
1276.0620;-23.4600;-21.6800;-1.7800
1276.2610;-23.2100;-21.5800;-1.6300
1276.4600;-22.9600;-21.4800;-1.4800
1276.6590;-22.7300;-21.3800;-1.3500
1276.8580;-22.5300;-21.2800;-1.2500
1277.0580;-22.3300;-21.2000;-1.1300
1277.2570;-22.1600;-21.0900;-1.0700
1277.4560;-21.9800;-21.0100;-0.9700
1277.6550;-21.8300;-20.9200;-0.9100
1277.8540;-21.7000;-20.8300;-0.8700
1278.0530;-21.5700;-20.7500;-0.8200
1278.2520;-21.4700;-20.6600;-0.8100
1278.4510;-21.3600;-20.5800;-0.7800
1278.6500;-21.2700;-20.4900;-0.7800
1278.8500;-21.2000;-20.4100;-0.7900
1279.0490;-21.1300;-20.3400;-0.7900
1279.2480;-21.0900;-20.2500;-0.8400
1279.4470;-21.0400;-20.1900;-0.8500
1279.6460;-21.0200;-20.1000;-0.9200
1279.8450;-20.9900;-20.0200;-0.9700
1280.0440;-20.9800;-19.9500;-1.0300
1280.2430;-21.0000;-19.8700;-1.1300
1280.4430;-21.0000;-19.8100;-1.1900
1280.6420;-21.0400;-19.7200;-1.3200
1280.8410;-21.0700;-19.6400;-1.4300
1281.0400;-21.1200;-19.5700;-1.5500
1281.2390;-21.2000;-19.4900;-1.7100
1281.4380;-21.2700;-19.4200;-1.8500
1281.6370;-21.3600;-19.3300;-2.0300
1281.8360;-21.4500;-19.2500;-2.2000
1282.0350;-21.5600;-19.1700;-2.3900
1282.2350;-21.7000;-19.0800;-2.6200
1282.4340;-21.8200;-19.0200;-2.8000
1282.6330;-21.9900;-18.9400;-3.0500
1282.8320;-22.1300;-18.8600;-3.2700
1283.0310;-22.2900;-18.7800;-3.5100
1283.2300;-22.4600;-18.7000;-3.7600
1283.4290;-22.6100;-18.6400;-3.9700
1283.6280;-22.7900;-18.5500;-4.2400
1283.8270;-22.9400;-18.4900;-4.4500
1284.0270;-23.0900;-18.4100;-4.6800
1284.2260;-23.2400;-18.3300;-4.9100
1284.4250;-23.3700;-18.2800;-5.0900
1284.6240;-23.4900;-18.2000;-5.2900
1284.8230;-23.5700;-18.1300;-5.4400
1285.0220;-23.6300;-18.0500;-5.5800
1285.2210;-23.6600;-17.9800;-5.6800
1285.4200;-23.6400;-17.9200;-5.7200
1285.6200;-23.6100;-17.8400;-5.7700
1285.8190;-23.5200;-17.7800;-5.7400
1286.0180;-23.4000;-17.7000;-5.7000
1286.2170;-23.2400;-17.6300;-5.6100
1286.4160;-23.0500;-17.5700;-5.4800
1286.6150;-22.8500;-17.5000;-5.3500
1286.8140;-22.5900;-17.4400;-5.1500
1287.0130;-22.3300;-17.3600;-4.9700
1287.2120;-22.0400;-17.2900;-4.7500
1287.4120;-21.7400;-17.2200;-4.5200
1287.6110;-21.4500;-17.1500;-4.3000
1287.8100;-21.1300;-17.1000;-4.0300
1288.0090;-20.8400;-17.0200;-3.8200
1288.2080;-20.5200;-16.9600;-3.5600
1288.4070;-20.2200;-16.9000;-3.3200
1288.6060;-19.9400;-16.8300;-3.1100
1288.8050;-19.6500;-16.7800;-2.8700
1289.0040;-19.3800;-16.7100;-2.6700
1289.2040;-19.1000;-16.6600;-2.4400
1289.4030;-18.8400;-16.6000;-2.2400
1289.6020;-18.6100;-16.5500;-2.0600
1289.8010;-18.3700;-16.5000;-1.8700
1290.0000;-18.1600;-16.4300;-1.7300
1290.1990;-17.9400;-16.3900;-1.5500
1290.3980;-17.7400;-16.3300;-1.4100
1290.5970;-17.5700;-16.2900;-1.2800
1290.7970;-17.3800;-16.2500;-1.1300
1290.9960;-17.2200;-16.1800;-1.0400
1291.1950;-17.0500;-16.1400;-0.9100
1291.3940;-16.9100;-16.0800;-0.8300
1291.5930;-16.7600;-16.0400;-0.7200
1291.7920;-16.6400;-15.9800;-0.6600
1291.9910;-16.5400;-15.9400;-0.6000
1292.1900;-16.4300;-15.8900;-0.5400
1292.3890;-16.3400;-15.8500;-0.4900
1292.5890;-16.2400;-15.8000;-0.4400
1292.7880;-16.1700;-15.7500;-0.4200
1292.9870;-16.1000;-15.7100;-0.3900
1293.1860;-16.0600;-15.6600;-0.4000
1293.3850;-16.0200;-15.6200;-0.4000
1293.5840;-15.9700;-15.5800;-0.3900
1293.7830;-15.9600;-15.5300;-0.4300
1293.9820;-15.9200;-15.5000;-0.4200
1294.1810;-15.9200;-15.4500;-0.4700
1294.3810;-15.9000;-15.4200;-0.4800
1294.5800;-15.8900;-15.3800;-0.5100
1294.7790;-15.9000;-15.3400;-0.5600
1294.9780;-15.9000;-15.3100;-0.5900
1295.1770;-15.9200;-15.2700;-0.6500
1295.3760;-15.9200;-15.2400;-0.6800
1295.5750;-15.9300;-15.2000;-0.7300
1295.7740;-15.9500;-15.1600;-0.7900
1295.9740;-15.9500;-15.1300;-0.8200
1296.1730;-15.9700;-15.0800;-0.8900
1296.3720;-15.9800;-15.0600;-0.9200
1296.5710;-15.9800;-15.0200;-0.9600
1296.7700;-16.0000;-14.9800;-1.0200
1296.9690;-16.0000;-14.9600;-1.0400
1297.1680;-16.0200;-14.9300;-1.0900
1297.3670;-16.0100;-14.9000;-1.1100
1297.5660;-16.0000;-14.8500;-1.1500
1297.7660;-16.0000;-14.8200;-1.1800
1297.9650;-15.9800;-14.8000;-1.1800
1298.1640;-15.9700;-14.7600;-1.2100
1298.3630;-15.9400;-14.7400;-1.2000
1298.5620;-15.9100;-14.7000;-1.2100
1298.7610;-15.8800;-14.6700;-1.2100
1298.9600;-15.8400;-14.6500;-1.1900
1299.1590;-15.8200;-14.6200;-1.2000
1299.3580;-15.7700;-14.6000;-1.1700
1299.5580;-15.7200;-14.5600;-1.1600
1299.7570;-15.6700;-14.5400;-1.1300
1299.9560;-15.6200;-14.5200;-1.1000
1300.1550;-15.5800;-14.4900;-1.0900
1300.3540;-15.5200;-14.4800;-1.0400
1300.5530;-15.4600;-14.4300;-1.0300
1300.7520;-15.4000;-14.4100;-0.9900
1300.9510;-15.3500;-14.3900;-0.9600
1301.1500;-15.3100;-14.3800;-0.9300
1301.3500;-15.2600;-14.3700;-0.8900
1301.5490;-15.2300;-14.3500;-0.8800
1301.7480;-15.1800;-14.3400;-0.8400
1301.9470;-15.1400;-14.3200;-0.8200
1302.1460;-15.1200;-14.3100;-0.8100
1302.3450;-15.0900;-14.3000;-0.7900
1302.5440;-15.0900;-14.2800;-0.8100
1302.7430;-15.0700;-14.2800;-0.7900
1302.9430;-15.0700;-14.2600;-0.8100
1303.1420;-15.0800;-14.2500;-0.8300
1303.3410;-15.0900;-14.2400;-0.8500
1303.5400;-15.1400;-14.2400;-0.9000
1303.7390;-15.1600;-14.2400;-0.9200
1303.9380;-15.2200;-14.2100;-1.0100
1304.1370;-15.2700;-14.2200;-1.0500
1304.3360;-15.3400;-14.2100;-1.1300
1304.5350;-15.4300;-14.2100;-1.2200
1304.7350;-15.5100;-14.2200;-1.2900
1304.9340;-15.6300;-14.2100;-1.4200
1305.1330;-15.7400;-14.2200;-1.5200
1305.3320;-15.8700;-14.2100;-1.6600
1305.5310;-16.0200;-14.2200;-1.8000
1305.7300;-16.1700;-14.2300;-1.9400
1305.9290;-16.3600;-14.2200;-2.1400
1306.1280;-16.5400;-14.2400;-2.3000
1306.3270;-16.7400;-14.2400;-2.5000
1306.5270;-16.9700;-14.2500;-2.7200
1306.7260;-17.2100;-14.2600;-2.9500
1306.9250;-17.4900;-14.2600;-3.2300
1307.1240;-17.7700;-14.2800;-3.4900
1307.3230;-18.0800;-14.2800;-3.8000
1307.5220;-18.4800;-14.3000;-4.1800
1307.7210;-18.7800;-14.3100;-4.4700
1307.9200;-19.1500;-14.3100;-4.8400
1308.1200;-19.5700;-14.3500;-5.2200
1308.3190;-20.0200;-14.3500;-5.6700
1308.5180;-20.4800;-14.3700;-6.1100
1308.7170;-20.9900;-14.3800;-6.6100
1308.9160;-21.5200;-14.3900;-7.1300
1309.1150;-22.0900;-14.4300;-7.6600
1309.3140;-22.7000;-14.4300;-8.2700
1309.5130;-23.3300;-14.4700;-8.8600
1309.7120;-23.9900;-14.4800;-9.5100
1309.9120;-24.6600;-14.5000;-10.1600
1310.1110;-25.3600;-14.5400;-10.8200
