Wavelength (nm);Intensity (dBm)
1131.0;1131.0
1200.0;-60.79
1200.199;-60.75
1200.398;-60.73
1200.597;-60.72
1200.797;-60.62
1200.996;-60.57
1201.195;-60.55
1201.394;-60.53
1201.593;-60.48
1201.792;-60.36
1201.991;-60.33
1202.19;-60.34
1202.389;-60.27
1202.589;-60.18
1202.788;-60.07
1202.987;-60.08
1203.186;-60.04
1203.385;-59.93
1203.584;-59.87
1203.783;-59.84
1203.982;-59.89
1204.181;-59.84
1204.381;-59.78
1204.58;-59.84
1204.779;-59.89
1204.978;-59.89
1205.177;-59.9
1205.376;-59.92
1205.575;-60.04
1205.774;-60.05
1205.974;-60.06
1206.173;-60.1
1206.372;-60.13
1206.571;-60.2
1206.77;-60.13
1206.969;-60.06
1207.168;-60.07
1207.367;-60.09
1207.566;-60.04
1207.766;-59.92
1207.965;-59.91
1208.164;-59.9
1208.363;-59.81
1208.562;-59.72
1208.761;-59.65
1208.96;-59.6
1209.159;-59.54
1209.358;-59.42
1209.558;-59.31
1209.757;-59.25
1209.956;-59.19
1210.155;-59.1
1210.354;-58.94
1210.553;-58.89
1210.752;-58.82
1210.951;-58.71
1211.15;-58.6
1211.35;-58.51
1211.549;-58.5
1211.748;-58.42
1211.947;-58.34
1212.146;-58.32
1212.345;-58.32
1212.544;-58.33
1212.743;-58.28
1212.943;-58.29
1213.142;-58.34
1213.341;-58.37
1213.54;-58.37
1213.739;-58.38
1213.938;-58.41
1214.137;-58.46
1214.336;-58.44
1214.535;-58.44
1214.735;-58.45
1214.934;-58.47
1215.133;-58.44
1215.332;-58.39
1215.531;-58.41
1215.73;-58.36
1215.929;-58.31
1216.128;-58.26
1216.327;-58.2
1216.527;-58.19
1216.726;-58.09
1216.925;-57.99
1217.124;-57.92
1217.323;-57.83
1217.522;-57.74
1217.721;-57.59
1217.92;-57.47
1218.12;-57.36
1218.319;-57.22
1218.518;-57.08
1218.717;-56.94
1218.916;-56.81
1219.115;-56.71
1219.314;-56.57
1219.513;-56.47
1219.712;-56.37
1219.912;-56.29
1220.111;-56.21
1220.31;-56.14
1220.509;-56.11
1220.708;-56.07
1220.907;-56.04
1221.106;-55.99
1221.305;-55.98
1221.504;-55.99
1221.704;-55.96
1221.903;-55.95
1222.102;-55.97
1222.301;-55.97
1222.5;-55.98
1222.699;-55.98
1222.898;-56.0
1223.097;-56.02
1223.297;-56.04
1223.496;-56.07
1223.695;-56.09
1223.894;-56.13
1224.093;-56.16
1224.292;-56.18
1224.491;-56.22
1224.69;-56.23
1224.889;-56.22
1225.089;-56.21
1225.288;-56.17
1225.487;-56.12
1225.686;-56.04
1225.885;-55.94
1226.084;-55.77
1226.283;-55.67
1226.482;-55.51
1226.681;-55.33
1226.881;-55.18
1227.08;-54.99
1227.279;-54.81
1227.478;-54.63
1227.677;-54.45
1227.876;-54.31
1228.075;-54.13
1228.274;-53.97
1228.474;-53.83
1228.673;-53.7
1228.872;-53.58
1229.071;-53.44
1229.27;-53.34
1229.469;-53.24
1229.668;-53.13
1229.867;-53.05
1230.066;-52.98
1230.266;-52.91
1230.465;-52.86
1230.664;-52.82
1230.863;-52.82
1231.062;-52.81
1231.261;-52.81
1231.46;-52.86
1231.659;-52.9
1231.858;-52.94
1232.058;-53.0
1232.257;-53.06
1232.456;-53.14
1232.655;-53.19
1232.854;-53.25
1233.053;-53.29
1233.252;-53.32
1233.451;-53.34
1233.65;-53.33
1233.85;-53.3
1234.049;-53.24
1234.248;-53.17
1234.447;-53.09
1234.646;-52.98
1234.845;-52.88
1235.044;-52.73
1235.243;-52.61
1235.443;-52.47
1235.642;-52.33
1235.841;-52.19
1236.04;-52.04
1236.239;-51.9
1236.438;-51.76
1236.637;-51.63
1236.836;-51.51
1237.035;-51.38
1237.235;-51.26
1237.434;-51.14
1237.633;-51.04
1237.832;-50.96
1238.031;-50.85
1238.23;-50.78
1238.429;-50.71
1238.628;-50.66
1238.827;-50.61
1239.027;-50.56
1239.226;-50.52
1239.425;-50.47
1239.624;-50.43
1239.823;-50.4
1240.022;-50.34
1240.221;-50.27
1240.42;-50.19
1240.62;-50.1
1240.819;-49.99
1241.018;-49.84
1241.217;-49.7
1241.416;-49.53
1241.615;-49.35
1241.814;-49.18
1242.013;-48.99
1242.212;-48.81
1242.412;-48.63
1242.611;-48.45
1242.81;-48.3
1243.009;-48.13
1243.208;-47.99
1243.407;-47.87
1243.606;-47.75
1243.805;-47.67
1244.004;-47.56
1244.204;-47.51
1244.403;-47.45
1244.602;-47.4
1244.801;-47.38
1245.0;-47.37
1245.199;-47.37
1245.398;-47.38
1245.597;-47.4
1245.797;-47.45
1245.996;-47.48
1246.195;-47.54
1246.394;-47.59
1246.593;-47.63
1246.792;-47.68
1246.991;-47.69
1247.19;-47.69
1247.389;-47.63
1247.589;-47.53
1247.788;-47.4
1247.987;-47.18
1248.186;-46.93
1248.385;-46.61
1248.584;-46.25
1248.783;-45.88
1248.982;-45.41
1249.181;-45.08
1249.381;-44.67
1249.58;-44.26
1249.779;-43.86
1249.978;-43.47
1250.177;-43.13
1250.376;-42.79
1250.575;-42.47
1250.774;-42.16
1250.974;-41.9
1251.173;-41.66
1251.372;-41.43
1251.571;-41.24
1251.77;-41.05
1251.969;-40.9
1252.168;-40.78
1252.367;-40.67
1252.566;-40.62
1252.766;-40.58
1252.965;-40.59
1253.164;-40.63
1253.363;-40.71
1253.562;-40.86
1253.761;-41.02
1253.96;-41.25
1254.159;-41.53
1254.358;-41.85
1254.558;-42.25
1254.757;-42.67
1254.956;-43.16
1255.155;-43.67
1255.354;-44.17
1255.553;-44.69
1255.752;-45.09
1255.951;-45.37
1256.15;-45.47
1256.35;-45.33
1256.549;-44.98
1256.748;-44.4
1256.947;-43.7
1257.146;-42.9
1257.345;-42.07
1257.544;-41.26
1257.743;-40.43
1257.943;-39.64
1258.142;-38.88
1258.341;-38.17
1258.54;-37.52
1258.739;-36.88
1258.938;-36.31
1259.137;-35.69
1259.336;-35.29
1259.535;-34.85
1259.735;-34.44
1259.934;-34.08
1260.133;-33.75
1260.332;-33.47
1260.531;-33.22
1260.73;-33.0
1260.929;-32.82
1261.128;-32.67
1261.327;-32.57
1261.527;-32.48
1261.726;-32.42
1261.925;-32.39
1262.124;-32.37
1262.323;-32.39
1262.522;-32.42
1262.721;-32.48
1262.92;-32.55
1263.12;-32.63
1263.319;-32.74
1263.518;-32.85
1263.717;-32.96
1263.916;-33.08
1264.115;-33.18
1264.314;-33.28
1264.513;-33.34
1264.712;-33.38
1264.912;-33.37
1265.111;-33.31
1265.31;-33.22
1265.509;-33.06
1265.708;-32.86
1265.907;-32.61
1266.106;-32.34
1266.305;-32.06
1266.504;-31.76
1266.704;-31.47
1266.903;-31.18
1267.102;-30.9
1267.301;-30.66
1267.5;-30.43
1267.699;-30.24
1267.898;-30.05
1268.097;-29.91
1268.297;-29.8
1268.496;-29.71
1268.695;-29.66
1268.894;-29.63
1269.093;-29.63
1269.292;-29.68
1269.491;-29.76
1269.69;-29.89
1269.889;-30.04
1270.089;-30.25
1270.288;-30.52
1270.487;-30.85
1270.686;-31.26
1270.885;-31.73
1271.084;-32.29
1271.283;-32.95
1271.482;-33.71
1271.681;-34.6
1271.881;-35.59
1272.08;-36.69
1272.279;-37.83
1272.478;-39.08
1272.677;-39.6
1272.876;-39.65
1273.075;-39.04
1273.274;-37.93
1273.474;-36.65
1273.673;-35.16
1273.872;-34.16
1274.071;-33.06
1274.27;-32.06
1274.469;-31.18
1274.668;-30.36
1274.867;-29.63
1275.066;-28.96
1275.266;-28.37
1275.465;-27.86
1275.664;-27.38
1275.863;-26.98
1276.062;-26.61
1276.261;-26.29
1276.46;-26.0
1276.659;-25.82
1276.858;-25.67
1277.058;-25.56
1277.257;-25.51
1277.456;-25.49
1277.655;-25.54
1277.854;-25.63
1278.053;-25.76
1278.252;-25.97
1278.451;-26.21
1278.65;-26.52
1278.85;-26.89
1279.049;-27.32
1279.248;-27.84
1279.447;-28.53
1279.646;-29.08
1279.845;-29.8
1280.044;-30.59
1280.243;-31.42
1280.443;-32.23
1280.642;-32.91
1280.841;-33.28
1281.04;-33.22
1281.239;-32.67
1281.438;-31.78
1281.637;-30.72
1281.836;-29.57
1282.035;-28.46
1282.235;-27.39
1282.434;-26.42
1282.633;-25.39
1282.832;-24.72
1283.031;-23.98
1283.23;-23.31
1283.429;-22.71
1283.628;-22.14
1283.827;-21.65
1284.027;-21.2
1284.226;-20.8
1284.425;-20.45
1284.624;-20.13
1284.823;-19.86
1285.022;-19.63
1285.221;-19.43
1285.42;-19.29
1285.62;-19.15
1285.819;-19.08
1286.018;-19.03
1286.217;-19.03
1286.416;-19.08
1286.615;-19.16
1286.814;-19.28
1287.013;-19.45
1287.212;-19.66
1287.412;-19.94
1287.611;-20.24
1287.81;-20.62
1288.009;-21.05
1288.208;-21.55
1288.407;-22.12
1288.606;-22.75
1288.805;-23.48
1289.004;-24.26
1289.204;-25.12
1289.403;-26.04
1289.602;-26.94
1289.801;-27.76
1290.0;-28.44
1290.199;-28.56
1290.398;-28.28
1290.597;-27.61
1290.797;-26.69
1290.996;-25.5
1291.195;-24.64
1291.394;-23.67
1291.593;-22.77
1291.792;-21.93
1291.991;-21.19
1292.19;-20.51
1292.389;-19.9
1292.589;-19.36
1292.788;-18.87
1292.987;-18.46
1293.186;-18.08
1293.385;-17.76
1293.584;-17.49
1293.783;-17.26
1293.982;-17.1
1294.181;-16.95
1294.381;-16.86
1294.58;-16.79
1294.779;-16.78
1294.978;-16.82
1295.177;-16.87
1295.376;-16.98
1295.575;-17.11
1295.774;-17.3
1295.974;-17.53
1296.173;-17.8
1296.372;-18.13
1296.571;-18.48
1296.77;-18.9
1296.969;-19.37
1297.168;-19.88
1297.367;-20.45
1297.566;-21.03
1297.766;-21.66
1297.965;-22.3
1298.164;-22.92
1298.363;-23.49
1298.562;-23.9
1298.761;-24.14
1298.96;-24.17
1299.159;-23.95
1299.358;-23.55
1299.558;-22.97
1299.757;-22.34
1299.956;-21.66
1300.155;-20.98
1300.354;-20.35
1300.553;-19.72
1300.752;-19.17
1300.951;-18.63
1301.15;-18.17
1301.35;-17.75
1301.549;-17.37
1301.748;-17.05
1301.947;-16.75
1302.146;-16.52
1302.345;-16.32
1302.544;-16.16
1302.743;-16.03
1302.943;-15.96
1303.142;-15.95
1303.341;-15.93
1303.54;-15.99
1303.739;-16.08
1303.938;-16.2
1304.137;-16.4
1304.336;-16.6
1304.535;-16.88
1304.735;-17.19
1304.934;-17.57
1305.133;-18.02
1305.332;-18.61
1305.531;-19.11
1305.73;-19.74
1305.929;-20.49
1306.128;-21.36
1306.327;-22.32
1306.527;-23.47
1306.726;-24.75
1306.925;-26.23
1307.124;-27.9
1307.323;-29.98
1307.522;-30.96
1307.721;-31.17
1307.92;-30.18
1308.12;-28.56
1308.319;-26.89
1308.518;-25.13
1308.717;-24.05
1308.916;-22.9
1309.115;-21.9
1309.314;-21.04
1309.513;-20.29
1309.712;-19.64
1309.912;-19.06
1310.111;-18.57
1310.31;-18.15
1310.509;-17.78
1310.708;-17.47
1310.907;-17.2
1311.106;-17.0
1311.305;-16.85
1311.504;-16.74
1311.704;-16.69
1311.903;-16.66
1312.102;-16.69
1312.301;-16.76
1312.5;-16.88
1312.699;-17.05
1312.898;-17.25
1313.097;-17.51
1313.297;-17.8
1313.496;-18.17
1313.695;-18.59
1313.894;-19.04
1314.093;-19.59
1314.292;-20.18
1314.491;-20.85
1314.69;-21.6
1314.889;-22.43
1315.089;-23.36
1315.288;-24.36
1315.487;-25.46
1315.686;-26.57
1315.885;-27.64
1316.084;-28.64
1316.283;-28.92
1316.482;-28.81
1316.681;-28.21
1316.881;-27.33
1317.08;-26.33
1317.279;-25.2
1317.478;-24.44
1317.677;-23.61
1317.876;-22.85
1318.075;-22.19
1318.274;-21.61
1318.474;-21.1
1318.673;-20.67
1318.872;-20.28
1319.071;-19.98
1319.27;-19.72
1319.469;-19.5
1319.668;-19.35
1319.867;-19.22
1320.066;-19.15
1320.266;-19.13
1320.465;-19.14
1320.664;-19.22
1320.863;-19.31
1321.062;-19.46
1321.261;-19.65
1321.46;-19.88
1321.659;-20.16
1321.858;-20.48
1322.058;-20.87
1322.257;-21.28
1322.456;-21.77
1322.655;-22.31
1322.854;-22.92
1323.053;-23.61
1323.252;-24.37
1323.451;-25.23
1323.65;-26.18
1323.85;-27.28
1324.049;-28.78
1324.248;-29.94
1324.447;-31.54
1324.646;-33.33
1324.845;-35.23
1325.044;-36.85
1325.243;-37.47
1325.443;-36.74
1325.642;-35.25
1325.841;-33.67
1326.04;-32.21
1326.239;-30.95
1326.438;-29.89
1326.637;-28.99
1326.836;-28.25
1327.035;-27.6
1327.235;-27.08
1327.434;-26.62
1327.633;-26.2
1327.832;-25.97
1328.031;-25.74
1328.23;-25.59
1328.429;-25.47
1328.628;-25.42
1328.827;-25.41
1329.027;-25.45
1329.226;-25.54
1329.425;-25.67
1329.624;-25.86
1329.823;-26.08
1330.022;-26.35
1330.221;-26.67
1330.42;-27.03
1330.62;-27.46
1330.819;-27.92
1331.018;-28.57
1331.217;-29.06
1331.416;-29.71
1331.615;-30.42
1331.814;-31.22
1332.013;-32.09
1332.212;-33.03
1332.412;-34.07
1332.611;-35.15
1332.81;-36.27
1333.009;-37.35
1333.208;-38.28
1333.407;-39.04
1333.606;-39.16
1333.805;-38.94
1334.004;-38.38
1334.204;-37.66
1334.403;-36.87
1334.602;-35.99
1334.801;-35.41
1335.0;-34.8
1335.199;-34.25
1335.398;-33.78
1335.597;-33.4
1335.797;-33.07
1335.996;-32.83
1336.195;-32.62
1336.394;-32.47
1336.593;-32.37
1336.792;-32.32
1336.991;-32.34
1337.19;-32.39
1337.389;-32.5
1337.589;-32.65
1337.788;-32.84
1337.987;-33.1
1338.186;-33.38
1338.385;-33.72
1338.584;-34.1
1338.783;-34.53
1338.982;-35.04
1339.181;-35.57
1339.381;-36.2
1339.58;-36.85
1339.779;-37.59
1339.978;-38.38
1340.177;-39.43
1340.376;-40.2
1340.575;-41.17
1340.774;-42.17
1340.974;-43.1
1341.173;-43.93
1341.372;-44.51
1341.571;-44.76
1341.77;-44.67
1341.969;-44.25
1342.168;-43.66
1342.367;-42.97
1342.566;-42.27
1342.766;-41.61
1342.965;-40.99
1343.164;-40.44
1343.363;-39.95
1343.562;-39.52
1343.761;-39.16
1343.96;-38.86
1344.159;-38.62
1344.358;-38.41
1344.558;-38.27
1344.757;-38.17
1344.956;-38.09
1345.155;-38.08
1345.354;-38.08
1345.553;-38.15
1345.752;-38.24
1345.951;-38.38
1346.15;-38.56
1346.35;-38.76
1346.549;-39.03
1346.748;-39.3
1346.947;-39.62
1347.146;-39.98
1347.345;-40.35
1347.544;-40.82
1347.743;-41.33
1347.943;-41.87
1348.142;-42.43
1348.341;-43.03
1348.54;-43.65
1348.739;-44.29
1348.938;-44.99
1349.137;-45.71
1349.336;-46.44
1349.535;-47.21
1349.735;-47.94
1349.934;-48.81
1350.133;-49.31
1350.332;-49.88
1350.531;-50.24
1350.73;-50.4
1350.929;-50.34
1351.128;-50.1
1351.327;-49.81
1351.527;-49.46
1351.726;-49.15
1351.925;-48.77
1352.124;-48.39
1352.323;-48.07
1352.522;-47.83
1352.721;-47.57
1352.92;-47.33
1353.12;-47.27
1353.319;-47.09
1353.518;-47.01
1353.717;-46.99
1353.916;-46.94
1354.115;-46.98
1354.314;-47.12
1354.513;-47.28
1354.712;-47.61
1354.912;-47.93
1355.111;-48.24
1355.31;-48.5
1355.509;-48.71
1355.708;-49.17
1355.907;-49.71
1356.106;-50.25
1356.305;-50.77
1356.504;-51.38
1356.704;-51.77
1356.903;-52.49
1357.102;-53.47
1357.301;-54.47
1357.5;-55.56
1357.699;-56.65
1357.898;-57.71
1358.097;-58.94
1358.297;-59.76
1358.496;-60.58
1358.695;-60.86
1358.894;-60.67
1359.093;-60.04
1359.292;-59.16
1359.491;-58.55
1359.69;-57.84
1359.889;-56.98
1360.089;-55.9
1360.288;-55.32
1360.487;-54.64
1360.686;-54.18
1360.885;-53.96
1361.084;-53.75
1361.283;-53.44
1361.482;-53.17
1361.681;-53.09
1361.881;-52.95
1362.08;-52.95
1362.279;-53.13
1362.478;-53.3
1362.677;-53.31
1362.876;-53.17
1363.075;-53.12
1363.274;-52.92
1363.474;-53.1
1363.673;-53.31
1363.872;-53.65
1364.071;-54.07
1364.27;-54.56
1364.469;-55.16
1364.668;-56.04
1364.867;-56.8
1365.066;-57.37
1365.266;-58.13
1365.465;-58.82
1365.664;-59.55
1365.863;-60.49
1366.062;-61.48
1366.261;-62.52
1366.46;-63.67
1366.659;-64.99
1366.858;-66.2
1367.058;-66.96
1367.257;-67.21
1367.456;-67.05
1367.655;-66.32
1367.854;-65.48
1368.053;-64.35
1368.252;-63.25
1368.451;-62.66
1368.65;-61.94
1368.85;-61.2
1369.049;-60.42
1369.248;-59.79
1369.447;-59.22
1369.646;-58.84
1369.845;-58.77
1370.044;-58.62
1370.243;-58.41
1370.443;-58.18
1370.642;-57.99
1370.841;-58.15
1371.04;-58.29
1371.239;-58.39
1371.438;-58.35
1371.637;-58.34
1371.836;-58.31
1372.035;-58.59
1372.235;-58.9
1372.434;-59.18
1372.633;-59.43
1372.832;-59.71
1373.031;-60.0
1373.23;-60.41
1373.429;-60.92
1373.628;-61.45
1373.827;-61.98
1374.027;-62.57
1374.226;-63.14
1374.425;-63.82
1374.624;-64.48
1374.823;-65.3
1375.022;-65.94
1375.221;-66.68
1375.42;-67.25
1375.62;-67.62
1375.819;-67.89
1376.018;-68.01
1376.217;-67.99
1376.416;-67.7
1376.615;-67.45
1376.814;-67.09
1377.013;-66.85
1377.212;-66.59
1377.412;-66.12
1377.611;-65.7
1377.81;-65.21
1378.009;-64.86
1378.208;-64.61
1378.407;-64.41
1378.606;-64.41
1378.805;-64.47
1379.004;-64.45
1379.204;-64.32
1379.403;-64.19
1379.602;-64.09
1379.801;-64.06
1380.0;-64.25
1380.199;-64.41
1380.398;-64.72
1380.597;-65.29
1380.797;-65.95
1380.996;-66.38
1381.195;-66.73
1381.394;-66.83
1381.593;-66.84
1381.792;-67.19
1381.991;-67.63
1382.19;-68.25
1382.389;-69.15
1382.589;-70.06
1382.788;-71.29
1382.987;-72.29
1383.186;-72.89
1383.385;-73.08
1383.584;-73.51
1383.783;-74.49
1383.982;-74.42
1384.181;-74.55
1384.381;-74.57
1384.58;-74.41
1384.779;-73.89
1384.978;-73.33
1385.177;-72.96
1385.376;-72.32
1385.575;-71.63
1385.774;-71.21
1385.974;-70.54
1386.173;-70.08
1386.372;-69.84
1386.571;-69.55
1386.77;-69.07
1386.969;-68.98
1387.168;-68.66
1387.367;-68.36
1387.566;-68.41
1387.766;-68.58
1387.965;-68.76
1388.164;-68.84
1388.363;-69.01
1388.562;-68.96
1388.761;-68.9
1388.96;-69.02
1389.159;-69.05
1389.358;-69.25
1389.558;-69.61
1389.757;-69.91
1389.956;-70.31
1390.155;-70.87
1390.354;-71.09
1390.553;-71.47
1390.752;-72.1
1390.951;-72.55
1391.15;-73.07
1391.35;-73.66
1391.549;-74.63
1391.748;-76.27
1391.947;-75.9
1392.146;-76.95
1392.345;-77.56
1392.544;-78.84
1392.743;-78.26
1392.943;-78.81
1393.142;-78.47
1393.341;-77.94
1393.54;-77.03
1393.739;-76.7
1393.938;-76.29
1394.137;-75.36
1394.336;-75.46
1394.535;-74.99
1394.735;-74.82
1394.934;-74.66
1395.133;-74.13
1395.332;-73.95
1395.531;-73.82
1395.73;-73.84
1395.929;-73.46
1396.128;-73.23
1396.327;-73.33
1396.527;-73.36
1396.726;-73.46
1396.925;-73.54
1397.124;-73.34
1397.323;-73.21
1397.522;-73.29
1397.721;-73.43
1397.92;-73.57
1398.12;-74.12
1398.319;-74.06
1398.518;-74.49
1398.717;-74.92
1398.916;-75.11
1399.115;-76.05
1399.314;-75.25
1399.513;-76.0
1399.712;-76.06
1399.912;-76.28
1400.111;-76.65
1400.31;-76.5
1400.509;-76.74
1400.708;-77.81
1400.907;-77.23
1401.106;-77.12
1401.305;-77.0
1401.504;-76.87
1401.704;-76.48
1401.903;-76.02
1402.102;-75.9
1402.301;-75.82
1402.5;-75.62
1402.699;-75.37
1402.898;-75.29
1403.097;-75.09
1403.297;-74.89
1403.496;-74.92
1403.695;-74.96
1403.894;-75.06
1404.093;-74.59
1404.292;-74.74
1404.491;-74.71
1404.69;-74.74
1404.889;-75.74
1405.089;-75.88
1405.288;-76.46
1405.487;-76.63
1405.686;-76.23
1405.885;-75.96
1406.084;-76.5
1406.283;-76.91
1406.482;-76.63
1406.681;-76.97
1406.881;-78.06
1407.08;-77.76
1407.279;-78.04
1407.478;-78.09
1407.677;-80.77
1407.876;-78.18
1408.075;-78.18
1408.274;-79.69
1408.474;-80.22
1408.673;-79.48
1408.872;-78.11
1409.071;-80.38
1409.27;-80.5
1409.469;-79.87
1409.668;-79.87
1409.867;-79.87
1410.066;-79.48
1410.266;-78.66
1410.465;-79.8
1410.664;-79.52
1410.863;-79.52
1411.062;-78.58
1411.261;-79.01
1411.46;-79.48
1411.659;-80.9
1411.858;-78.11
1412.058;-78.21
1412.257;-77.96
1412.456;-77.94
1412.655;-78.77
1412.854;-78.23
1413.053;-78.58
1413.252;-77.54
1413.451;-78.63
1413.65;-78.29
1413.85;-78.5
1414.049;-79.74
1414.248;-79.26
1414.447;-78.96
1414.646;-78.29
1414.845;-80.39
1415.044;-79.23
1415.243;-79.46
1415.443;-79.46
1415.642;-79.81
1415.841;-79.53
1416.04;-79.81
1416.239;-78.9
1416.438;-79.39
1416.637;-78.84
1416.836;-79.39
1417.035;-79.49
1417.235;-80.6
1417.434;-79.46
1417.633;-79.53
1417.832;-79.26
1418.031;-79.26
1418.23;-79.74
1418.429;-81.31
1418.628;-79.3
1418.827;-79.67
1419.027;-78.53
1419.226;-79.39
1419.425;-79.11
1419.624;-80.43
1419.823;-78.75
1420.022;-79.7
1420.221;-78.75
1420.42;-80.31
1420.62;-79.99
1420.819;-78.96
1421.018;-78.99
1421.217;-79.99
1421.416;-81.01
1421.615;-80.12
1421.814;-78.3
1422.013;-79.12
1422.212;-78.97
1422.412;-78.08
1422.611;-79.37
1422.81;-80.65
1423.009;-79.93
1423.208;-78.57
1423.407;-78.43
1423.606;-79.18
1423.805;-78.3
1424.004;-78.62
1424.204;-79.47
1424.403;-79.89
1424.602;-79.03
1424.801;-79.54
1425.0;-79.03
