Wavelength (nm);Intensity (dBm)
1131.0;1131.0
1200.0;-60.74
1200.199;-60.67
1200.398;-60.66
1200.597;-60.63
1200.797;-60.56
1200.996;-60.51
1201.195;-60.48
1201.394;-60.48
1201.593;-60.45
1201.792;-60.39
1201.991;-60.36
1202.19;-60.39
1202.389;-60.36
1202.589;-60.27
1202.788;-60.23
1202.987;-60.24
1203.186;-60.23
1203.385;-60.15
1203.584;-60.1
1203.783;-60.12
1203.982;-60.17
1204.181;-60.14
1204.381;-60.07
1204.58;-60.1
1204.779;-60.17
1204.978;-60.17
1205.177;-60.15
1205.376;-60.17
1205.575;-60.23
1205.774;-60.27
1205.974;-60.24
1206.173;-60.23
1206.372;-60.26
1206.571;-60.26
1206.77;-60.24
1206.969;-60.13
1207.168;-60.11
1207.367;-60.08
1207.566;-60.0
1207.766;-59.86
1207.965;-59.8
1208.164;-59.8
1208.363;-59.7
1208.562;-59.57
1208.761;-59.5
1208.96;-59.45
1209.159;-59.37
1209.358;-59.27
1209.558;-59.17
1209.757;-59.13
1209.956;-59.09
1210.155;-58.97
1210.354;-58.88
1210.553;-58.81
1210.752;-58.8
1210.951;-58.72
1211.15;-58.62
1211.35;-58.59
1211.549;-58.61
1211.748;-58.57
1211.947;-58.5
1212.146;-58.5
1212.345;-58.54
1212.544;-58.55
1212.743;-58.54
1212.943;-58.55
1213.142;-58.62
1213.341;-58.65
1213.54;-58.66
1213.739;-58.68
1213.938;-58.71
1214.137;-58.73
1214.336;-58.74
1214.535;-58.69
1214.735;-58.7
1214.934;-58.69
1215.133;-58.62
1215.332;-58.54
1215.531;-58.5
1215.73;-58.45
1215.929;-58.33
1216.128;-58.22
1216.327;-58.14
1216.527;-58.05
1216.726;-57.95
1216.925;-57.8
1217.124;-57.68
1217.323;-57.58
1217.522;-57.47
1217.721;-57.32
1217.92;-57.19
1218.12;-57.09
1218.319;-56.98
1218.518;-56.85
1218.717;-56.74
1218.916;-56.64
1219.115;-56.56
1219.314;-56.48
1219.513;-56.41
1219.712;-56.4
1219.912;-56.36
1220.111;-56.32
1220.31;-56.31
1220.509;-56.32
1220.708;-56.36
1220.907;-56.36
1221.106;-56.37
1221.305;-56.43
1221.504;-56.48
1221.704;-56.52
1221.903;-56.55
1222.102;-56.6
1222.301;-56.66
1222.5;-56.66
1222.699;-56.71
1222.898;-56.74
1223.097;-56.75
1223.297;-56.77
1223.496;-56.74
1223.695;-56.75
1223.894;-56.73
1224.093;-56.69
1224.292;-56.64
1224.491;-56.57
1224.69;-56.51
1224.889;-56.39
1225.089;-56.28
1225.288;-56.15
1225.487;-55.99
1225.686;-55.8
1225.885;-55.64
1226.084;-55.47
1226.283;-55.28
1226.482;-55.08
1226.681;-54.91
1226.881;-54.73
1227.08;-54.56
1227.279;-54.39
1227.478;-54.24
1227.677;-54.12
1227.876;-53.98
1228.075;-53.87
1228.274;-53.76
1228.474;-53.68
1228.673;-53.63
1228.872;-53.55
1229.071;-53.5
1229.27;-53.48
1229.469;-53.44
1229.668;-53.44
1229.867;-53.42
1230.066;-53.44
1230.266;-53.45
1230.465;-53.46
1230.664;-53.51
1230.863;-53.56
1231.062;-53.62
1231.261;-53.69
1231.46;-53.75
1231.659;-53.83
1231.858;-53.88
1232.058;-53.94
1232.257;-53.99
1232.456;-54.03
1232.655;-54.06
1232.854;-54.03
1233.053;-54.02
1233.252;-53.96
1233.451;-53.87
1233.65;-53.78
1233.85;-53.65
1234.049;-53.51
1234.248;-53.33
1234.447;-53.15
1234.646;-53.0
1234.845;-52.81
1235.044;-52.62
1235.243;-52.44
1235.443;-52.25
1235.642;-52.1
1235.841;-51.92
1236.04;-51.78
1236.239;-51.63
1236.438;-51.49
1236.637;-51.38
1236.836;-51.27
1237.035;-51.18
1237.235;-51.08
1237.434;-51.0
1237.633;-50.96
1237.832;-50.9
1238.031;-50.86
1238.23;-50.82
1238.429;-50.79
1238.628;-50.78
1238.827;-50.74
1239.027;-50.75
1239.226;-50.72
1239.425;-50.69
1239.624;-50.67
1239.823;-50.63
1240.022;-50.59
1240.221;-50.5
1240.42;-50.42
1240.62;-50.33
1240.819;-50.2
1241.018;-50.06
1241.217;-49.89
1241.416;-49.74
1241.615;-49.55
1241.814;-49.37
1242.013;-49.21
1242.212;-49.03
1242.412;-48.87
1242.611;-48.71
1242.81;-48.58
1243.009;-48.46
1243.208;-48.35
1243.407;-48.27
1243.606;-48.2
1243.805;-48.15
1244.004;-48.13
1244.204;-48.12
1244.403;-48.14
1244.602;-48.17
1244.801;-48.22
1245.0;-48.3
1245.199;-48.36
1245.398;-48.45
1245.597;-48.53
1245.797;-48.6
1245.996;-48.67
1246.195;-48.71
1246.394;-48.73
1246.593;-48.7
1246.792;-48.61
1246.991;-48.48
1247.19;-48.28
1247.389;-48.02
1247.589;-47.68
1247.788;-47.31
1247.987;-46.89
1248.186;-46.43
1248.385;-45.96
1248.584;-45.39
1248.783;-44.99
1248.982;-44.51
1249.181;-44.05
1249.381;-43.62
1249.58;-43.18
1249.779;-42.78
1249.978;-42.4
1250.177;-42.07
1250.376;-41.77
1250.575;-41.46
1250.774;-41.22
1250.974;-41.0
1251.173;-40.81
1251.372;-40.66
1251.571;-40.53
1251.77;-40.43
1251.969;-40.36
1252.168;-40.32
1252.367;-40.32
1252.566;-40.35
1252.766;-40.42
1252.965;-40.51
1253.164;-40.63
1253.363;-40.8
1253.562;-40.99
1253.761;-41.22
1253.96;-41.46
1254.159;-41.73
1254.358;-42.01
1254.558;-42.28
1254.757;-42.54
1254.956;-42.73
1255.155;-42.86
1255.354;-42.88
1255.553;-42.78
1255.752;-42.55
1255.951;-42.18
1256.15;-41.72
1256.35;-41.18
1256.549;-40.58
1256.748;-39.97
1256.947;-39.33
1257.146;-38.71
1257.345;-38.1
1257.544;-37.53
1257.743;-36.99
1257.943;-36.44
1258.142;-35.96
1258.341;-35.42
1258.54;-35.09
1258.739;-34.7
1258.938;-34.33
1259.137;-34.02
1259.336;-33.72
1259.535;-33.48
1259.735;-33.25
1259.934;-33.06
1260.133;-32.92
1260.332;-32.8
1260.531;-32.74
1260.73;-32.68
1260.929;-32.68
1261.128;-32.73
1261.327;-32.8
1261.527;-32.94
1261.726;-33.09
1261.925;-33.3
1262.124;-33.57
1262.323;-33.86
1262.522;-34.22
1262.721;-34.6
1262.92;-35.03
1263.12;-35.52
1263.319;-36.01
1263.518;-36.54
1263.717;-37.02
1263.916;-37.45
1264.115;-37.79
1264.314;-37.95
1264.513;-37.91
1264.712;-37.63
1264.912;-37.15
1265.111;-36.53
1265.31;-35.8
1265.509;-35.04
1265.708;-34.25
1265.907;-33.49
1266.106;-32.77
1266.305;-32.09
1266.504;-31.47
1266.704;-30.88
1266.903;-30.34
1267.102;-29.86
1267.301;-29.41
1267.5;-29.04
1267.699;-28.68
1267.898;-28.38
1268.097;-28.13
1268.297;-27.9
1268.496;-27.73
1268.695;-27.57
1268.894;-27.46
1269.093;-27.39
1269.292;-27.35
1269.491;-27.37
1269.69;-27.4
1269.889;-27.48
1270.089;-27.6
1270.288;-27.75
1270.487;-27.98
1270.686;-28.21
1270.885;-28.51
1271.084;-28.85
1271.283;-29.23
1271.482;-29.67
1271.681;-30.13
1271.881;-30.63
1272.08;-31.14
1272.279;-31.63
1272.478;-32.08
1272.677;-32.42
1272.876;-32.63
1273.075;-32.64
1273.274;-32.45
1273.474;-32.07
1273.673;-31.53
1273.872;-30.91
1274.071;-30.22
1274.27;-29.53
1274.469;-28.85
1274.668;-28.18
1274.867;-27.56
1275.066;-26.96
1275.266;-26.42
1275.465;-25.83
1275.664;-25.46
1275.863;-25.05
1276.062;-24.68
1276.261;-24.36
1276.46;-24.06
1276.659;-23.8
1276.858;-23.59
1277.058;-23.41
1277.257;-23.29
1277.456;-23.19
1277.655;-23.13
1277.854;-23.11
1278.053;-23.11
1278.252;-23.17
1278.451;-23.25
1278.65;-23.38
1278.85;-23.52
1279.049;-23.71
1279.248;-23.94
1279.447;-24.18
1279.646;-24.47
1279.845;-24.77
1280.044;-25.09
1280.243;-25.42
1280.443;-25.74
1280.642;-26.04
1280.841;-26.28
1281.04;-26.47
1281.239;-26.55
1281.438;-26.52
1281.637;-26.39
1281.836;-26.11
1282.035;-25.76
1282.235;-25.32
1282.434;-24.82
1282.633;-24.32
1282.832;-23.76
1283.031;-23.23
1283.23;-22.71
1283.429;-22.21
1283.628;-21.75
1283.827;-21.31
1284.027;-20.91
1284.226;-20.54
1284.425;-20.2
1284.624;-19.91
1284.823;-19.64
1285.022;-19.42
1285.221;-19.22
1285.42;-19.07
1285.62;-18.96
1285.819;-18.87
1286.018;-18.84
1286.217;-18.82
1286.416;-18.86
1286.615;-18.95
1286.814;-19.07
1287.013;-19.25
1287.212;-19.45
1287.412;-19.73
1287.611;-20.05
1287.81;-20.43
1288.009;-20.89
1288.208;-21.4
1288.407;-22.0
1288.606;-22.69
1288.805;-23.48
1289.004;-24.4
1289.204;-25.42
1289.403;-26.58
1289.602;-27.86
1289.801;-29.46
1290.0;-30.36
1290.199;-30.99
1290.398;-30.81
1290.597;-29.83
1290.797;-28.45
1290.996;-27.0
1291.195;-25.44
1291.394;-24.42
1291.593;-23.31
1291.792;-22.35
1291.991;-21.48
1292.19;-20.73
1292.389;-20.04
1292.589;-19.43
1292.788;-18.91
1292.987;-18.44
1293.186;-18.04
1293.385;-17.68
1293.584;-17.37
1293.783;-17.12
1293.982;-16.91
1294.181;-16.77
1294.381;-16.64
1294.58;-16.56
1294.779;-16.53
1294.978;-16.54
1295.177;-16.61
1295.376;-16.69
1295.575;-16.83
1295.774;-17.01
1295.974;-17.23
1296.173;-17.52
1296.372;-17.85
1296.571;-18.24
1296.77;-18.69
1296.969;-19.2
1297.168;-19.81
1297.367;-20.49
1297.566;-21.27
1297.766;-22.15
1297.965;-23.18
1298.164;-24.36
1298.363;-25.71
1298.562;-27.23
1298.761;-29.23
1298.96;-30.43
1299.159;-31.22
1299.358;-30.85
1299.558;-29.5
1299.757;-27.85
1299.956;-26.26
1300.155;-24.57
1300.354;-23.56
1300.553;-22.45
1300.752;-21.49
1300.951;-20.66
1301.15;-19.92
1301.35;-19.29
1301.549;-18.72
1301.748;-18.22
1301.947;-17.79
1302.146;-17.42
1302.345;-17.12
1302.544;-16.85
1302.743;-16.64
1302.943;-16.47
1303.142;-16.35
1303.341;-16.28
1303.54;-16.24
1303.739;-16.25
1303.938;-16.29
1304.137;-16.39
1304.336;-16.53
1304.535;-16.71
1304.735;-16.94
1304.934;-17.2
1305.133;-17.52
1305.332;-17.9
1305.531;-18.32
1305.73;-18.8
1305.929;-19.32
1306.128;-19.93
1306.327;-20.6
1306.527;-21.32
1306.726;-22.13
1306.925;-22.96
1307.124;-23.85
1307.323;-24.72
1307.522;-25.5
1307.721;-26.08
1307.92;-26.32
1308.12;-26.22
1308.319;-25.77
1308.518;-25.09
1308.717;-24.31
1308.916;-23.47
1309.115;-22.69
1309.314;-21.93
1309.513;-21.25
1309.712;-20.65
1309.912;-20.08
1310.111;-19.61
1310.31;-19.18
1310.509;-18.81
1310.708;-18.5
1310.907;-18.23
1311.106;-18.03
1311.305;-17.86
1311.504;-17.76
1311.704;-17.7
1311.903;-17.67
1312.102;-17.72
1312.301;-17.79
1312.5;-17.93
1312.699;-18.1
1312.898;-18.32
1313.097;-18.61
1313.297;-18.94
1313.496;-19.35
1313.695;-19.79
1313.894;-20.31
1314.093;-20.92
1314.292;-21.59
1314.491;-22.38
1314.69;-23.25
1314.889;-24.25
1315.089;-25.38
1315.288;-26.65
1315.487;-28.08
1315.686;-29.85
1315.885;-30.89
1316.084;-31.64
1316.283;-31.5
1316.482;-30.54
1316.681;-29.19
1316.881;-27.81
1317.08;-26.53
1317.279;-25.19
1317.478;-24.37
1317.677;-23.51
1317.876;-22.73
1318.075;-22.06
1318.274;-21.47
1318.474;-20.97
1318.673;-20.56
1318.872;-20.18
1319.071;-19.89
1319.27;-19.62
1319.469;-19.42
1319.668;-19.27
1319.867;-19.15
1320.066;-19.1
1320.266;-19.07
1320.465;-19.1
1320.664;-19.17
1320.863;-19.27
1321.062;-19.42
1321.261;-19.6
1321.46;-19.85
1321.659;-20.11
1321.858;-20.43
1322.058;-20.8
1322.257;-21.21
1322.456;-21.69
1322.655;-22.2
1322.854;-22.78
1323.053;-23.43
1323.252;-24.13
1323.451;-24.93
1323.65;-25.77
1323.85;-26.71
1324.049;-27.7
1324.248;-28.98
1324.447;-29.82
1324.646;-30.79
1324.845;-31.59
1325.044;-32.02
1325.243;-32.03
1325.443;-31.62
1325.642;-30.96
1325.841;-30.17
1326.04;-29.36
1326.239;-28.59
1326.438;-27.86
1326.637;-27.22
1326.836;-26.65
1327.035;-26.08
1327.235;-25.73
1327.434;-25.37
1327.633;-25.08
1327.832;-24.82
1328.031;-24.64
1328.23;-24.49
1328.429;-24.39
1328.628;-24.34
1328.827;-24.32
1329.027;-24.36
1329.226;-24.42
1329.425;-24.53
1329.624;-24.67
1329.823;-24.85
1330.022;-25.08
1330.221;-25.32
1330.42;-25.62
1330.62;-25.94
1330.819;-26.31
1331.018;-26.72
1331.217;-27.15
1331.416;-27.64
1331.615;-28.12
1331.814;-28.78
1332.013;-29.22
1332.212;-29.8
1332.412;-30.37
1332.611;-30.94
1332.81;-31.48
1333.009;-31.95
1333.208;-32.37
1333.407;-32.67
1333.606;-32.87
1333.805;-32.95
1334.004;-32.93
1334.204;-32.82
1334.403;-32.63
1334.602;-32.4
1334.801;-32.15
1335.0;-31.9
1335.199;-31.65
1335.398;-31.41
1335.597;-31.22
1335.797;-31.04
1335.996;-30.9
1336.195;-30.8
1336.394;-30.72
1336.593;-30.68
1336.792;-30.67
1336.991;-30.71
1337.19;-30.78
1337.389;-30.89
1337.589;-31.05
1337.788;-31.23
1337.987;-31.47
1338.186;-31.73
1338.385;-32.05
1338.584;-32.41
1338.783;-32.81
1338.982;-33.27
1339.181;-33.77
1339.381;-34.34
1339.58;-34.95
1339.779;-35.65
1339.978;-36.43
1340.177;-37.28
1340.376;-38.24
1340.575;-39.54
1340.774;-40.51
1340.974;-41.83
1341.173;-43.34
1341.372;-45.04
1341.571;-46.88
1341.77;-49.15
1341.969;-50.05
1342.168;-50.14
1342.367;-49.09
1342.566;-47.61
1342.766;-45.87
1342.965;-44.81
1343.164;-43.69
1343.363;-42.75
1343.562;-41.96
1343.761;-41.29
1343.96;-40.75
1344.159;-40.28
1344.358;-39.91
1344.558;-39.62
1344.757;-39.38
1344.956;-39.21
1345.155;-39.08
1345.354;-39.02
1345.553;-39.0
1345.752;-39.04
1345.951;-39.14
1346.15;-39.26
1346.35;-39.44
1346.549;-39.67
1346.748;-39.94
1346.947;-40.26
1347.146;-40.61
1347.345;-41.01
1347.544;-41.49
1347.743;-42.05
1347.943;-42.65
1348.142;-43.3
1348.341;-44.02
1348.54;-44.76
1348.739;-45.6
1348.938;-46.54
1349.137;-47.59
1349.336;-49.01
1349.535;-50.07
1349.735;-51.5
1349.934;-53.06
1350.133;-54.69
1350.332;-56.12
1350.531;-56.88
1350.73;-56.61
1350.929;-55.54
1351.128;-54.21
1351.327;-52.92
1351.527;-51.79
1351.726;-50.85
1351.925;-49.97
1352.124;-49.22
1352.323;-48.59
1352.522;-48.12
1352.721;-47.63
1352.92;-47.24
1353.12;-47.02
1353.319;-46.72
1353.518;-46.54
1353.717;-46.4
1353.916;-46.24
1354.115;-46.21
1354.314;-46.29
1354.513;-46.35
1354.712;-46.6
1354.912;-46.85
1355.111;-47.06
1355.31;-47.25
1355.509;-47.36
1355.708;-47.74
1355.907;-48.19
1356.106;-48.72
1356.305;-49.04
1356.504;-49.51
1356.704;-49.82
1356.903;-50.4
1357.102;-51.26
1357.301;-52.12
1357.5;-53.07
1357.699;-54.05
1357.898;-55.07
1358.097;-56.15
1358.297;-57.48
1358.496;-59.41
1358.695;-60.61
1358.894;-62.2
1359.093;-63.34
1359.292;-63.43
1359.491;-63.1
1359.69;-62.06
1359.889;-60.65
1360.089;-59.2
1360.288;-58.0
1360.487;-56.93
1360.686;-55.97
1360.885;-55.63
1361.084;-55.15
1361.283;-54.61
1361.482;-54.11
1361.681;-53.88
1361.881;-53.56
1362.08;-53.41
1362.279;-53.46
1362.478;-53.47
1362.677;-53.35
1362.876;-53.05
1363.075;-52.89
1363.274;-52.57
1363.474;-52.62
1363.673;-52.71
1363.872;-52.9
1364.071;-53.21
1364.27;-53.55
1364.469;-54.02
1364.668;-54.74
1364.867;-55.31
1365.066;-55.69
1365.266;-56.24
1365.465;-56.6
1365.664;-57.19
1365.863;-57.88
1366.062;-58.66
1366.261;-59.35
1366.46;-60.22
1366.659;-61.32
1366.858;-62.59
1367.058;-63.91
1367.257;-65.33
1367.456;-66.71
1367.655;-67.82
1367.854;-68.34
1368.053;-68.07
1368.252;-67.21
1368.451;-66.52
1368.65;-65.48
1368.85;-64.27
1369.049;-63.18
1369.248;-62.23
1369.447;-61.39
1369.646;-60.77
1369.845;-60.49
1370.044;-60.13
1370.243;-59.7
1370.443;-59.28
1370.642;-58.94
1370.841;-58.95
1371.04;-58.95
1371.239;-58.89
1371.438;-58.68
1371.637;-58.54
1371.836;-58.41
1372.035;-58.54
1372.235;-58.72
1372.434;-58.87
1372.633;-59.0
1372.832;-59.14
1373.031;-59.3
1373.23;-59.59
1373.429;-59.99
1373.628;-60.36
1373.827;-60.75
1374.027;-61.19
1374.226;-61.67
1374.425;-62.26
1374.624;-62.87
1374.823;-63.59
1375.022;-64.32
1375.221;-65.09
1375.42;-65.76
1375.62;-66.51
1375.819;-67.34
1376.018;-68.04
1376.217;-68.8
1376.416;-69.38
1376.615;-69.59
1376.814;-69.93
1377.013;-69.78
1377.212;-69.67
1377.412;-69.13
1377.611;-68.7
1377.81;-68.02
1378.009;-67.41
1378.208;-66.97
1378.407;-66.67
1378.606;-66.48
1378.805;-66.26
1379.004;-66.05
1379.204;-65.74
1379.403;-65.37
1379.602;-65.16
1379.801;-64.99
1380.0;-64.96
1380.199;-65.0
1380.398;-65.11
1380.597;-65.53
1380.797;-66.05
1380.996;-66.26
1381.195;-66.36
1381.394;-66.26
1381.593;-66.12
1381.792;-66.38
1381.991;-66.6
1382.19;-67.11
1382.389;-67.71
1382.589;-68.52
1382.788;-69.46
1382.987;-70.35
1383.186;-70.81
1383.385;-71.01
1383.584;-71.35
1383.783;-72.43
1383.982;-73.29
1384.181;-74.08
1384.381;-74.65
1384.58;-75.3
1384.779;-75.72
1384.978;-76.6
1385.177;-76.44
1385.376;-76.38
1385.575;-75.79
1385.774;-74.35
1385.974;-74.26
1386.173;-73.51
1386.372;-72.99
1386.571;-72.29
1386.77;-71.52
1386.969;-71.16
1387.168;-70.9
1387.367;-70.36
1387.566;-70.23
1387.766;-70.19
1387.965;-70.21
1388.164;-69.88
1388.363;-69.91
1388.562;-69.7
1388.761;-69.56
1388.96;-69.39
1389.159;-69.2
1389.358;-69.35
1389.558;-69.37
1389.757;-69.69
1389.956;-69.91
1390.155;-70.05
1390.354;-70.22
1390.553;-70.31
1390.752;-70.56
1390.951;-71.19
1391.15;-71.29
1391.35;-71.82
1391.549;-72.16
1391.748;-72.99
1391.947;-73.29
1392.146;-73.84
1392.345;-74.64
1392.544;-75.31
1392.743;-76.62
1392.943;-77.33
1393.142;-77.22
1393.341;-78.26
1393.54;-78.24
1393.739;-77.94
1393.938;-78.09
1394.137;-77.18
1394.336;-78.19
1394.535;-77.27
1394.735;-76.86
1394.934;-76.91
1395.133;-77.67
1395.332;-77.17
1395.531;-76.97
1395.73;-76.49
1395.929;-76.1
1396.128;-74.89
1396.327;-75.07
1396.527;-74.85
1396.726;-74.9
1396.925;-74.55
1397.124;-74.64
1397.323;-74.12
1397.522;-73.85
1397.721;-73.94
1397.92;-73.74
1398.12;-73.95
1398.319;-73.75
1398.518;-73.94
1398.717;-73.65
1398.916;-73.79
1399.115;-73.91
1399.314;-73.83
1399.513;-74.56
1399.712;-74.54
1399.912;-74.54
1400.111;-74.59
1400.31;-74.74
1400.509;-75.24
1400.708;-74.74
1400.907;-75.68
1401.106;-75.2
1401.305;-75.74
1401.504;-74.85
1401.704;-74.84
1401.903;-75.24
1402.102;-74.92
1402.301;-74.87
1402.5;-74.71
1402.699;-74.56
1402.898;-74.78
1403.097;-74.64
1403.297;-75.11
1403.496;-74.74
1403.695;-75.46
1403.894;-75.28
1404.093;-75.21
1404.292;-75.32
1404.491;-75.46
1404.69;-75.43
1404.889;-75.81
1405.089;-76.31
1405.288;-76.57
1405.487;-76.48
1405.686;-75.58
1405.885;-76.36
1406.084;-77.17
1406.283;-77.28
1406.482;-76.91
1406.681;-76.82
1406.881;-77.76
1407.08;-77.64
1407.279;-78.21
1407.478;-78.6
1407.677;-78.49
1407.876;-78.83
1408.075;-77.24
1408.274;-79.13
1408.474;-78.89
1408.673;-78.63
1408.872;-78.47
1409.071;-79.1
1409.27;-79.76
1409.469;-79.45
1409.668;-81.72
1409.867;-80.1
1410.066;-79.38
1410.266;-79.01
1410.465;-79.52
1410.664;-78.34
1410.863;-79.19
1411.062;-79.35
1411.261;-78.8
1411.46;-79.1
1411.659;-77.8
1411.858;-79.52
1412.058;-78.06
1412.257;-77.87
1412.456;-78.89
1412.655;-78.44
1412.854;-78.77
1413.053;-79.25
1413.252;-78.55
1413.451;-78.95
1413.65;-79.46
1413.85;-79.74
1414.049;-79.53
1414.248;-78.53
1414.447;-79.7
1414.646;-78.56
1414.845;-78.61
1415.044;-78.96
1415.243;-78.78
1415.443;-79.92
1415.642;-80.11
1415.841;-79.67
1416.04;-79.14
1416.239;-79.3
1416.438;-78.99
1416.637;-79.7
1416.836;-79.43
1417.035;-79.02
1417.235;-79.39
1417.434;-79.53
1417.633;-79.39
1417.832;-79.74
1418.031;-80.15
1418.23;-78.45
1418.429;-79.02
1418.628;-79.02
1418.827;-79.26
1419.027;-79.74
1419.226;-79.53
1419.425;-80.6
1419.624;-78.56
1419.823;-80.07
1420.022;-78.72
1420.221;-78.35
1420.42;-78.5
1420.62;-80.35
1420.819;-78.9
1421.018;-79.02
1421.217;-79.67
1421.416;-80.11
1421.615;-78.57
1421.814;-78.85
1422.013;-77.58
1422.212;-78.15
1422.412;-79.37
1422.611;-80.04
1422.81;-78.62
1423.009;-78.71
1423.208;-78.2
1423.407;-79.18
1423.606;-78.73
1423.805;-79.54
1424.004;-78.01
1424.204;-78.33
1424.403;-78.3
1424.602;-78.57
1424.801;-79.47
1425.0;-79.96
