Wavelength (nm);Intensity (dBm)
1131.0;1131.0
1200.0;-60.72
1200.199;-60.69
1200.398;-60.67
1200.597;-60.65
1200.797;-60.56
1200.996;-60.51
1201.195;-60.46
1201.394;-60.47
1201.593;-60.42
1201.792;-60.32
1201.991;-60.28
1202.19;-60.28
1202.389;-60.21
1202.589;-60.14
1202.788;-60.05
1202.987;-60.05
1203.186;-60.03
1203.385;-59.93
1203.584;-59.89
1203.783;-59.89
1203.982;-59.94
1204.181;-59.89
1204.381;-59.84
1204.58;-59.9
1204.779;-59.95
1204.978;-59.94
1205.177;-59.93
1205.376;-59.94
1205.575;-60.06
1205.774;-60.09
1205.974;-60.07
1206.173;-60.07
1206.372;-60.11
1206.571;-60.13
1206.77;-60.07
1206.969;-59.98
1207.168;-60.0
1207.367;-59.98
1207.566;-59.93
1207.766;-59.8
1207.965;-59.75
1208.164;-59.75
1208.363;-59.65
1208.562;-59.55
1208.761;-59.47
1208.96;-59.43
1209.159;-59.38
1209.358;-59.23
1209.558;-59.15
1209.757;-59.09
1209.956;-59.03
1210.155;-58.91
1210.354;-58.77
1210.553;-58.73
1210.752;-58.66
1210.951;-58.55
1211.15;-58.47
1211.35;-58.41
1211.549;-58.38
1211.748;-58.34
1211.947;-58.26
1212.146;-58.25
1212.345;-58.26
1212.544;-58.28
1212.743;-58.24
1212.943;-58.24
1213.142;-58.31
1213.341;-58.32
1213.54;-58.34
1213.739;-58.34
1213.938;-58.37
1214.137;-58.41
1214.336;-58.38
1214.535;-58.38
1214.735;-58.39
1214.934;-58.39
1215.133;-58.34
1215.332;-58.28
1215.531;-58.28
1215.73;-58.26
1215.929;-58.18
1216.128;-58.11
1216.327;-58.04
1216.527;-57.98
1216.726;-57.89
1216.925;-57.77
1217.124;-57.69
1217.323;-57.6
1217.522;-57.5
1217.721;-57.34
1217.92;-57.21
1218.12;-57.12
1218.319;-56.98
1218.518;-56.86
1218.717;-56.72
1218.916;-56.62
1219.115;-56.54
1219.314;-56.41
1219.513;-56.35
1219.712;-56.29
1219.912;-56.25
1220.111;-56.2
1220.31;-56.15
1220.509;-56.15
1220.708;-56.13
1220.907;-56.12
1221.106;-56.12
1221.305;-56.13
1221.504;-56.16
1221.704;-56.15
1221.903;-56.15
1222.102;-56.19
1222.301;-56.2
1222.5;-56.21
1222.699;-56.22
1222.898;-56.25
1223.097;-56.27
1223.297;-56.27
1223.496;-56.28
1223.695;-56.3
1223.894;-56.31
1224.093;-56.32
1224.292;-56.3
1224.491;-56.3
1224.69;-56.26
1224.889;-56.18
1225.089;-56.13
1225.288;-56.03
1225.487;-55.92
1225.686;-55.76
1225.885;-55.65
1226.084;-55.47
1226.283;-55.32
1226.482;-55.15
1226.681;-54.95
1226.881;-54.8
1227.08;-54.63
1227.279;-54.45
1227.478;-54.3
1227.677;-54.15
1227.876;-54.02
1228.075;-53.88
1228.274;-53.76
1228.474;-53.65
1228.673;-53.54
1228.872;-53.45
1229.071;-53.35
1229.27;-53.28
1229.469;-53.22
1229.668;-53.15
1229.867;-53.1
1230.066;-53.08
1230.266;-53.03
1230.465;-53.02
1230.664;-53.0
1230.863;-53.02
1231.062;-53.05
1231.261;-53.07
1231.46;-53.14
1231.659;-53.18
1231.858;-53.23
1232.058;-53.28
1232.257;-53.33
1232.456;-53.4
1232.655;-53.41
1232.854;-53.42
1233.053;-53.44
1233.252;-53.41
1233.451;-53.38
1233.65;-53.32
1233.85;-53.24
1234.049;-53.16
1234.248;-53.03
1234.447;-52.92
1234.646;-52.79
1234.845;-52.65
1235.044;-52.5
1235.243;-52.36
1235.443;-52.23
1235.642;-52.08
1235.841;-51.93
1236.04;-51.8
1236.239;-51.66
1236.438;-51.54
1236.637;-51.41
1236.836;-51.3
1237.035;-51.19
1237.235;-51.08
1237.434;-51.0
1237.633;-50.92
1237.832;-50.86
1238.031;-50.78
1238.23;-50.73
1238.429;-50.7
1238.628;-50.66
1238.827;-50.63
1239.027;-50.61
1239.226;-50.58
1239.425;-50.56
1239.624;-50.52
1239.823;-50.49
1240.022;-50.42
1240.221;-50.34
1240.42;-50.25
1240.62;-50.15
1240.819;-50.03
1241.018;-49.85
1241.217;-49.69
1241.416;-49.53
1241.615;-49.33
1241.814;-49.15
1242.013;-48.96
1242.212;-48.78
1242.412;-48.61
1242.611;-48.43
1242.81;-48.3
1243.009;-48.14
1243.208;-48.01
1243.407;-47.91
1243.606;-47.8
1243.805;-47.73
1244.004;-47.65
1244.204;-47.6
1244.403;-47.58
1244.602;-47.55
1244.801;-47.57
1245.0;-47.57
1245.199;-47.61
1245.398;-47.66
1245.597;-47.7
1245.797;-47.78
1245.996;-47.83
1246.195;-47.9
1246.394;-47.97
1246.593;-47.99
1246.792;-48.01
1246.991;-47.97
1247.19;-47.9
1247.389;-47.77
1247.589;-47.55
1247.788;-47.32
1247.987;-46.98
1248.186;-46.63
1248.385;-46.24
1248.584;-45.74
1248.783;-45.38
1248.982;-44.94
1249.181;-44.53
1249.381;-44.09
1249.58;-43.68
1249.779;-43.29
1249.978;-42.91
1250.177;-42.58
1250.376;-42.25
1250.575;-41.96
1250.774;-41.69
1250.974;-41.45
1251.173;-41.25
1251.372;-41.05
1251.571;-40.91
1251.77;-40.77
1251.969;-40.67
1252.168;-40.62
1252.367;-40.57
1252.566;-40.59
1252.766;-40.62
1252.965;-40.71
1253.164;-40.85
1253.363;-41.01
1253.562;-41.25
1253.761;-41.5
1253.96;-41.83
1254.159;-42.21
1254.358;-42.62
1254.558;-43.09
1254.757;-43.56
1254.956;-44.05
1255.155;-44.53
1255.354;-44.9
1255.553;-45.17
1255.752;-45.22
1255.951;-45.05
1256.15;-44.68
1256.35;-44.1
1256.549;-43.41
1256.748;-42.62
1256.947;-41.81
1257.146;-41.0
1257.345;-40.2
1257.544;-39.48
1257.743;-38.74
1257.943;-38.06
1258.142;-37.44
1258.341;-36.84
1258.54;-36.32
1258.739;-35.72
1258.938;-35.35
1259.137;-34.93
1259.336;-34.55
1259.535;-34.24
1259.735;-33.92
1259.934;-33.67
1260.133;-33.45
1260.332;-33.25
1260.531;-33.12
1260.73;-32.99
1260.929;-32.92
1261.128;-32.86
1261.327;-32.84
1261.527;-32.87
1261.726;-32.9
1261.925;-32.97
1262.124;-33.05
1262.323;-33.17
1262.522;-33.33
1262.721;-33.47
1262.92;-33.65
1263.12;-33.82
1263.319;-33.99
1263.518;-34.17
1263.717;-34.3
1263.916;-34.42
1264.115;-34.47
1264.314;-34.47
1264.513;-34.42
1264.712;-34.27
1264.912;-34.06
1265.111;-33.77
1265.31;-33.43
1265.509;-33.07
1265.708;-32.65
1265.907;-32.24
1266.106;-31.81
1266.305;-31.4
1266.504;-31.02
1266.704;-30.64
1266.903;-30.31
1267.102;-29.99
1267.301;-29.71
1267.5;-29.48
1267.699;-29.25
1267.898;-29.08
1268.097;-28.94
1268.297;-28.82
1268.496;-28.76
1268.695;-28.71
1268.894;-28.71
1269.093;-28.73
1269.292;-28.79
1269.491;-28.92
1269.69;-29.07
1269.889;-29.28
1270.089;-29.52
1270.288;-29.82
1270.487;-30.2
1270.686;-30.64
1270.885;-31.17
1271.084;-31.76
1271.283;-32.45
1271.482;-33.22
1271.681;-34.08
1271.881;-35.04
1272.08;-36.0
1272.279;-36.91
1272.478;-37.58
1272.677;-37.81
1272.876;-37.52
1273.075;-36.74
1273.274;-35.71
1273.474;-34.55
1273.673;-33.43
1273.872;-32.37
1274.071;-31.38
1274.27;-30.49
1274.469;-29.67
1274.668;-28.93
1274.867;-28.26
1275.066;-27.65
1275.266;-27.12
1275.465;-26.62
1275.664;-26.2
1275.863;-25.75
1276.062;-25.49
1276.261;-25.21
1276.46;-24.97
1276.659;-24.79
1276.858;-24.63
1277.058;-24.54
1277.257;-24.48
1277.456;-24.46
1277.655;-24.5
1277.854;-24.57
1278.053;-24.7
1278.252;-24.85
1278.451;-25.06
1278.65;-25.33
1278.85;-25.63
1279.049;-25.99
1279.248;-26.38
1279.447;-26.82
1279.646;-27.31
1279.845;-27.81
1280.044;-28.45
1280.243;-28.86
1280.443;-29.31
1280.642;-29.63
1280.841;-29.78
1281.04;-29.71
1281.239;-29.39
1281.438;-28.89
1281.637;-28.22
1281.836;-27.47
1282.035;-26.69
1282.235;-25.78
1282.434;-25.15
1282.633;-24.43
1282.832;-23.77
1283.031;-23.13
1283.23;-22.56
1283.429;-22.02
1283.628;-21.53
1283.827;-21.11
1284.027;-20.7
1284.226;-20.36
1284.425;-20.04
1284.624;-19.77
1284.823;-19.55
1285.022;-19.35
1285.221;-19.2
1285.42;-19.08
1285.62;-19.0
1285.819;-18.97
1286.018;-18.97
1286.217;-19.02
1286.416;-19.1
1286.615;-19.25
1286.814;-19.43
1287.013;-19.66
1287.212;-19.96
1287.412;-20.29
1287.611;-20.7
1287.81;-21.19
1288.009;-21.74
1288.208;-22.39
1288.407;-23.12
1288.606;-23.98
1288.805;-24.98
1289.004;-26.12
1289.204;-27.43
1289.403;-29.2
1289.602;-30.45
1289.801;-31.71
1290.0;-32.24
1290.199;-31.62
1290.398;-30.22
1290.597;-28.59
1290.797;-26.99
1290.996;-25.35
1291.195;-24.29
1291.394;-23.21
1291.593;-22.23
1291.792;-21.37
1291.991;-20.63
1292.19;-19.96
1292.389;-19.38
1292.589;-18.85
1292.788;-18.4
1292.987;-18.01
1293.186;-17.67
1293.385;-17.4
1293.584;-17.14
1293.783;-16.96
1293.982;-16.82
1294.181;-16.72
1294.381;-16.68
1294.58;-16.64
1294.779;-16.68
1294.978;-16.75
1295.177;-16.86
1295.376;-17.04
1295.575;-17.23
1295.774;-17.49
1295.974;-17.78
1296.173;-18.15
1296.372;-18.58
1296.571;-19.04
1296.77;-19.6
1296.969;-20.21
1297.168;-20.92
1297.367;-21.71
1297.566;-22.57
1297.766;-23.56
1297.965;-24.6
1298.164;-25.7
1298.363;-26.75
1298.562;-27.54
1298.761;-27.92
1298.96;-27.69
1299.159;-26.98
1299.358;-25.95
1299.558;-24.82
1299.757;-23.74
1299.956;-22.71
1300.155;-21.78
1300.354;-20.94
1300.553;-20.17
1300.752;-19.51
1300.951;-18.9
1301.15;-18.4
1301.35;-17.92
1301.549;-17.53
1301.748;-17.18
1301.947;-16.88
1302.146;-16.65
1302.345;-16.43
1302.544;-16.29
1302.743;-16.17
1302.943;-16.1
1303.142;-16.09
1303.341;-16.11
1303.54;-16.19
1303.739;-16.28
1303.938;-16.44
1304.137;-16.63
1304.336;-16.87
1304.535;-17.19
1304.735;-17.53
1304.934;-17.94
1305.133;-18.5
1305.332;-18.97
1305.531;-19.57
1305.73;-20.27
1305.929;-21.07
1306.128;-21.97
1306.327;-23.0
1306.527;-24.16
1306.726;-25.46
1306.925;-26.87
1307.124;-28.6
1307.323;-29.46
1307.522;-29.88
1307.721;-29.39
1307.92;-28.21
1308.12;-26.83
1308.319;-25.23
1308.518;-24.23
1308.717;-23.11
1308.916;-22.13
1309.115;-21.3
1309.314;-20.54
1309.513;-19.91
1309.712;-19.33
1309.912;-18.84
1310.111;-18.43
1310.31;-18.06
1310.509;-17.78
1310.708;-17.51
1310.907;-17.32
1311.106;-17.18
1311.305;-17.07
1311.504;-17.04
1311.704;-17.03
1311.903;-17.08
1312.102;-17.16
1312.301;-17.3
1312.5;-17.51
1312.699;-17.74
1312.898;-18.04
1313.097;-18.38
1313.297;-18.79
1313.496;-19.28
1313.695;-19.81
1313.894;-20.44
1314.093;-21.14
1314.292;-21.95
1314.491;-22.87
1314.69;-23.91
1314.889;-25.12
1315.089;-26.49
1315.288;-28.05
1315.487;-30.13
1315.686;-31.39
1315.885;-32.35
1316.084;-32.15
1316.283;-30.94
1316.482;-29.36
1316.681;-27.81
1316.881;-26.41
1317.08;-25.03
1317.279;-24.16
1317.478;-23.28
1317.677;-22.48
1317.876;-21.8
1318.075;-21.22
1318.274;-20.71
1318.474;-20.29
1318.673;-19.93
1318.872;-19.63
1319.071;-19.39
1319.27;-19.19
1319.469;-19.06
1319.668;-18.95
1319.867;-18.91
1320.066;-18.9
1320.266;-18.94
1320.465;-19.03
1320.664;-19.15
1320.863;-19.33
1321.062;-19.54
1321.261;-19.8
1321.46;-20.11
1321.659;-20.46
1321.858;-20.88
1322.058;-21.34
1322.257;-21.86
1322.456;-22.45
1322.655;-23.11
1322.854;-23.86
1323.053;-24.69
1323.252;-25.63
1323.451;-26.68
1323.65;-27.86
1323.85;-29.53
1324.049;-30.77
1324.248;-32.46
1324.447;-34.19
1324.646;-35.67
1324.845;-36.24
1325.044;-35.64
1325.243;-34.3
1325.443;-32.81
1325.642;-31.44
1325.841;-30.2
1326.04;-29.16
1326.239;-28.26
1326.438;-27.49
1326.637;-26.85
1326.836;-26.2
1327.035;-25.85
1327.235;-25.46
1327.434;-25.17
1327.633;-24.91
1327.832;-24.72
1328.031;-24.58
1328.23;-24.5
1328.429;-24.48
1328.628;-24.49
1328.827;-24.55
1329.027;-24.65
1329.226;-24.79
1329.425;-24.99
1329.624;-25.2
1329.823;-25.48
1330.022;-25.78
1330.221;-26.12
1330.42;-26.53
1330.62;-26.97
1330.819;-27.46
1331.018;-28.0
1331.217;-28.71
1331.416;-29.22
1331.615;-29.88
1331.814;-30.6
1332.013;-31.33
1332.212;-32.1
1332.412;-32.84
1332.611;-33.55
1332.81;-34.15
1333.009;-34.62
1333.208;-34.91
1333.407;-34.99
1333.606;-34.91
1333.805;-34.65
1334.004;-34.3
1334.204;-33.88
1334.403;-33.45
1334.602;-33.04
1334.801;-32.64
1335.0;-32.29
1335.199;-31.97
1335.398;-31.7
1335.597;-31.49
1335.797;-31.31
1335.996;-31.21
1336.195;-31.11
1336.394;-31.07
1336.593;-31.07
1336.792;-31.1
1336.991;-31.21
1337.19;-31.33
1337.389;-31.52
1337.589;-31.73
1337.788;-32.0
1337.987;-32.32
1338.186;-32.67
1338.385;-33.09
1338.584;-33.54
1338.783;-34.06
1338.982;-34.64
1339.181;-35.28
1339.381;-36.02
1339.58;-36.8
1339.779;-37.71
1339.978;-38.93
1340.177;-39.87
1340.376;-41.14
1340.575;-42.58
1340.774;-44.22
1340.974;-46.01
1341.173;-47.85
1341.372;-49.62
1341.571;-49.8
1341.77;-48.98
1341.969;-47.55
1342.168;-45.78
1342.367;-44.67
1342.566;-43.49
1342.766;-42.48
1342.965;-41.64
1343.164;-40.91
1343.363;-40.32
1343.562;-39.8
1343.761;-39.39
1343.96;-39.06
1344.159;-38.78
1344.358;-38.59
1344.558;-38.43
1344.757;-38.34
1344.956;-38.29
1345.155;-38.28
1345.354;-38.34
1345.553;-38.42
1345.752;-38.57
1345.951;-38.75
1346.15;-38.97
1346.35;-39.25
1346.549;-39.57
1346.748;-39.94
1346.947;-40.33
1347.146;-40.78
1347.345;-41.27
1347.544;-41.86
1347.743;-42.52
1347.943;-43.23
1348.142;-43.98
1348.341;-44.81
1348.54;-45.66
1348.739;-46.62
1348.938;-47.65
1349.137;-49.04
1349.336;-49.98
1349.535;-51.19
1349.735;-52.31
1349.934;-53.21
1350.133;-53.71
1350.332;-53.73
1350.531;-53.25
1350.73;-52.43
1350.929;-51.5
1351.128;-50.58
1351.327;-49.76
1351.527;-49.07
1351.726;-48.49
1351.925;-47.95
1352.124;-47.45
1352.323;-47.07
1352.522;-46.79
1352.721;-46.49
1352.92;-46.24
1353.12;-46.2
1353.319;-46.05
1353.518;-45.98
1353.717;-45.99
1353.916;-45.96
1354.115;-46.03
1354.314;-46.21
1354.513;-46.39
1354.712;-46.76
1354.912;-47.1
1355.111;-47.43
1355.31;-47.75
1355.509;-48.0
1355.708;-48.65
1355.907;-49.1
1356.106;-49.68
1356.305;-50.27
1356.504;-50.94
1356.704;-51.42
1356.903;-52.23
1357.102;-53.32
1357.301;-54.47
1357.5;-55.78
1357.699;-57.12
1357.898;-58.77
1358.097;-59.96
1358.297;-61.49
1358.496;-62.71
1358.695;-62.95
1358.894;-62.35
1359.093;-61.16
1359.292;-59.8
1359.491;-58.89
1359.69;-57.94
1359.889;-56.88
1360.089;-55.68
1360.288;-55.04
1360.487;-54.32
1360.686;-53.81
1360.885;-53.58
1361.084;-53.37
1361.283;-53.05
1361.482;-52.78
1361.681;-52.69
1361.881;-52.56
1362.08;-52.56
1362.279;-52.75
1362.478;-52.93
1362.677;-52.94
1362.876;-52.81
1363.075;-52.77
1363.274;-52.58
1363.474;-52.76
1363.673;-52.99
1363.872;-53.34
1364.071;-53.76
1364.27;-54.25
1364.469;-54.88
1364.668;-55.76
1364.867;-56.53
1365.066;-57.11
1365.266;-57.89
1365.465;-58.57
1365.664;-59.3
1365.863;-60.24
1366.062;-61.23
1366.261;-62.28
1366.46;-63.41
1366.659;-64.69
1366.858;-65.85
1367.058;-66.69
1367.257;-66.88
1367.456;-66.78
1367.655;-66.12
1367.854;-65.26
1368.053;-64.15
1368.252;-63.09
1368.451;-62.6
1368.65;-61.86
1368.85;-61.1
1369.049;-60.35
1369.248;-59.73
1369.447;-59.16
1369.646;-58.79
1369.845;-58.74
1370.044;-58.57
1370.243;-58.39
1370.443;-58.18
1370.642;-58.0
1370.841;-58.16
1371.04;-58.32
1371.239;-58.43
1371.438;-58.41
1371.637;-58.38
1371.836;-58.41
1372.035;-58.66
1372.235;-59.0
1372.434;-59.3
1372.633;-59.58
1372.832;-59.9
1373.031;-60.23
1373.23;-60.69
1373.429;-61.24
1373.628;-61.8
1373.827;-62.39
1374.027;-63.07
1374.226;-63.78
1374.425;-64.52
1374.624;-65.43
1374.823;-66.38
1375.022;-67.46
1375.221;-68.38
1375.42;-69.27
1375.62;-70.32
1375.819;-70.64
1376.018;-71.16
1376.217;-71.38
1376.416;-70.96
1376.615;-70.58
1376.814;-69.97
1377.013;-69.39
1377.212;-68.81
1377.412;-68.12
1377.611;-67.55
1377.81;-66.95
1378.009;-66.47
1378.208;-66.11
1378.407;-65.86
1378.606;-65.78
1378.805;-65.76
1379.004;-65.68
1379.204;-65.49
1379.403;-65.29
1379.602;-65.12
1379.801;-65.15
1380.0;-65.28
1380.199;-65.44
1380.398;-65.75
1380.597;-66.36
1380.797;-66.97
1380.996;-67.3
1381.195;-67.65
1381.394;-67.79
1381.593;-67.8
1381.792;-68.23
1381.991;-68.65
1382.19;-69.34
1382.389;-70.2
1382.589;-71.21
1382.788;-72.04
1382.987;-73.19
1383.186;-73.76
1383.385;-74.58
1383.584;-75.01
1383.783;-75.26
1383.982;-75.16
1384.181;-76.4
1384.381;-75.88
1384.58;-75.59
1384.779;-74.72
1384.978;-74.25
1385.177;-73.93
1385.376;-73.23
1385.575;-72.7
1385.774;-72.28
1385.974;-71.73
1386.173;-71.19
1386.372;-70.87
1386.571;-70.61
1386.77;-70.07
1386.969;-69.87
1387.168;-69.74
1387.367;-69.65
1387.566;-69.4
1387.766;-69.54
1387.965;-69.83
1388.164;-69.98
1388.363;-70.08
1388.562;-70.09
1388.761;-69.9
1388.96;-70.06
1389.159;-70.06
1389.358;-70.3
1389.558;-70.49
1389.757;-70.86
1389.956;-71.23
1390.155;-71.64
1390.354;-71.99
1390.553;-72.48
1390.752;-72.43
1390.951;-72.98
1391.15;-73.68
1391.35;-74.62
1391.549;-74.93
1391.748;-75.18
1391.947;-75.71
1392.146;-76.88
1392.345;-76.7
1392.544;-77.05
1392.743;-77.8
1392.943;-77.31
1393.142;-77.22
1393.341;-76.66
1393.54;-76.99
1393.739;-76.88
1393.938;-76.29
1394.137;-75.81
1394.336;-75.01
1394.535;-75.71
1394.735;-75.23
1394.934;-74.85
1395.133;-74.93
1395.332;-74.92
1395.531;-74.91
1395.73;-74.96
1395.929;-74.58
1396.128;-74.93
1396.327;-74.52
1396.527;-75.1
1396.726;-74.84
1396.925;-74.59
1397.124;-74.48
1397.323;-74.53
1397.522;-74.75
1397.721;-75.03
1397.92;-75.25
1398.12;-75.31
1398.319;-75.01
1398.518;-75.93
1398.717;-75.79
1398.916;-75.6
1399.115;-75.6
1399.314;-75.74
1399.513;-76.11
1399.712;-75.87
1399.912;-75.79
1400.111;-76.41
1400.31;-76.4
1400.509;-75.68
1400.708;-75.85
1400.907;-75.75
1401.106;-75.51
1401.305;-75.96
1401.504;-75.53
1401.704;-75.23
1401.903;-75.14
1402.102;-75.0
1402.301;-74.53
1402.5;-74.83
1402.699;-74.68
1402.898;-74.69
1403.097;-74.42
1403.297;-74.74
1403.496;-74.83
1403.695;-74.5
1403.894;-74.56
1404.093;-74.77
1404.292;-75.05
1404.491;-75.25
1404.69;-75.67
1404.889;-75.64
1405.089;-76.02
1405.288;-76.76
1405.487;-77.12
1405.686;-77.75
1405.885;-76.5
1406.084;-77.26
1406.283;-77.21
1406.482;-76.67
1406.681;-77.73
1406.881;-78.01
1407.08;-77.6
1407.279;-79.52
1407.478;-77.73
1407.677;-79.83
1407.876;-79.01
1408.075;-79.52
1408.274;-80.3
1408.474;-79.52
1408.673;-78.92
1408.872;-80.59
1409.071;-79.45
1409.27;-79.91
1409.469;-79.52
1409.668;-80.06
1409.867;-79.29
1410.066;-78.66
1410.266;-78.74
1410.465;-78.49
1410.664;-78.49
1410.863;-79.52
1411.062;-78.28
1411.261;-78.41
1411.46;-78.09
1411.659;-78.28
1411.858;-78.83
1412.058;-78.86
1412.257;-78.77
1412.456;-79.25
1412.655;-79.48
1412.854;-79.19
1413.053;-78.6
1413.252;-78.83
1413.451;-78.95
1413.65;-78.78
1413.85;-79.08
1414.049;-78.4
1414.248;-79.26
1414.447;-79.88
1414.646;-80.03
1414.845;-79.02
1415.044;-78.87
1415.243;-78.59
1415.443;-78.96
1415.642;-79.23
1415.841;-80.47
1416.04;-78.32
1416.239;-79.33
1416.438;-79.36
1416.637;-79.02
1416.836;-78.78
1417.035;-78.87
1417.235;-78.75
1417.434;-80.11
1417.633;-79.14
1417.832;-79.53
1418.031;-78.84
1418.23;-78.84
1418.429;-78.0
1418.628;-79.74
1418.827;-78.29
1419.027;-81.15
1419.226;-79.67
1419.425;-78.59
1419.624;-78.67
1419.823;-80.11
1420.022;-78.05
1420.221;-78.72
1420.42;-79.53
1420.62;-80.23
1420.819;-78.96
1421.018;-79.67
1421.217;-78.84
1421.416;-79.53
1421.615;-78.38
1421.814;-79.47
1422.013;-79.54
1422.212;-80.04
1422.412;-78.62
1422.611;-78.62
1422.81;-78.85
1423.009;-80.32
1423.208;-80.12
1423.407;-78.3
1423.606;-79.27
1423.805;-80.61
1424.004;-79.54
1424.204;-79.4
1424.403;-79.31
1424.602;-79.03
1424.801;-79.54
1425.0;-79.78
