Wavelength (nm);Intensity (dBm)
1131.0;1131.0
1200.0;-60.74
1200.199;-60.69
1200.398;-60.7
1200.597;-60.69
1200.797;-60.63
1200.996;-60.58
1201.195;-60.59
1201.394;-60.59
1201.593;-60.56
1201.792;-60.47
1201.991;-60.45
1202.19;-60.46
1202.389;-60.41
1202.589;-60.3
1202.788;-60.26
1202.987;-60.27
1203.186;-60.26
1203.385;-60.14
1203.584;-60.11
1203.783;-60.12
1203.982;-60.12
1204.181;-60.09
1204.381;-60.02
1204.58;-60.06
1204.779;-60.11
1204.978;-60.13
1205.177;-60.11
1205.376;-60.09
1205.575;-60.18
1205.774;-60.21
1205.974;-60.23
1206.173;-60.23
1206.372;-60.25
1206.571;-60.28
1206.77;-60.22
1206.969;-60.15
1207.168;-60.13
1207.367;-60.12
1207.566;-60.06
1207.766;-59.97
1207.965;-59.93
1208.164;-59.94
1208.363;-59.85
1208.562;-59.75
1208.761;-59.7
1208.96;-59.67
1209.159;-59.63
1209.358;-59.5
1209.558;-59.42
1209.757;-59.39
1209.956;-59.34
1210.155;-59.24
1210.354;-59.11
1210.553;-59.06
1210.752;-59.03
1210.951;-58.92
1211.15;-58.82
1211.35;-58.77
1211.549;-58.75
1211.748;-58.73
1211.947;-58.64
1212.146;-58.61
1212.345;-58.64
1212.544;-58.64
1212.743;-58.63
1212.943;-58.63
1213.142;-58.69
1213.341;-58.7
1213.54;-58.7
1213.739;-58.73
1213.938;-58.75
1214.137;-58.78
1214.336;-58.76
1214.535;-58.74
1214.735;-58.76
1214.934;-58.76
1215.133;-58.72
1215.332;-58.66
1215.531;-58.64
1215.73;-58.63
1215.929;-58.55
1216.128;-58.47
1216.327;-58.39
1216.527;-58.36
1216.726;-58.27
1216.925;-58.16
1217.124;-58.06
1217.323;-57.97
1217.522;-57.85
1217.721;-57.71
1217.92;-57.57
1218.12;-57.47
1218.319;-57.31
1218.518;-57.16
1218.717;-57.04
1218.916;-56.9
1219.115;-56.8
1219.314;-56.66
1219.513;-56.55
1219.712;-56.49
1219.912;-56.41
1220.111;-56.34
1220.31;-56.27
1220.509;-56.25
1220.708;-56.23
1220.907;-56.2
1221.106;-56.18
1221.305;-56.16
1221.504;-56.16
1221.704;-56.16
1221.903;-56.16
1222.102;-56.18
1222.301;-56.19
1222.5;-56.18
1222.699;-56.2
1222.898;-56.23
1223.097;-56.26
1223.297;-56.28
1223.496;-56.29
1223.695;-56.34
1223.894;-56.39
1224.093;-56.42
1224.292;-56.44
1224.491;-56.46
1224.69;-56.49
1224.889;-56.46
1225.089;-56.45
1225.288;-56.41
1225.487;-56.33
1225.686;-56.25
1225.885;-56.13
1226.084;-55.99
1226.283;-55.84
1226.482;-55.62
1226.681;-55.46
1226.881;-55.3
1227.08;-55.11
1227.279;-54.91
1227.478;-54.74
1227.677;-54.56
1227.876;-54.4
1228.075;-54.23
1228.274;-54.08
1228.474;-53.94
1228.673;-53.81
1228.872;-53.68
1229.071;-53.57
1229.27;-53.46
1229.469;-53.35
1229.668;-53.27
1229.867;-53.19
1230.066;-53.15
1230.266;-53.08
1230.465;-53.03
1230.664;-53.02
1230.863;-53.02
1231.062;-53.06
1231.261;-53.08
1231.46;-53.14
1231.659;-53.21
1231.858;-53.28
1232.058;-53.38
1232.257;-53.45
1232.456;-53.56
1232.655;-53.63
1232.854;-53.7
1233.053;-53.78
1233.252;-53.81
1233.451;-53.82
1233.65;-53.81
1233.85;-53.77
1234.049;-53.72
1234.248;-53.61
1234.447;-53.5
1234.646;-53.38
1234.845;-53.23
1235.044;-53.09
1235.243;-52.91
1235.443;-52.75
1235.642;-52.57
1235.841;-52.39
1236.04;-52.23
1236.239;-52.05
1236.438;-51.88
1236.637;-51.72
1236.836;-51.57
1237.035;-51.43
1237.235;-51.28
1237.434;-51.16
1237.633;-51.04
1237.832;-50.94
1238.031;-50.85
1238.23;-50.77
1238.429;-50.71
1238.628;-50.65
1238.827;-50.6
1239.027;-50.58
1239.226;-50.54
1239.425;-50.52
1239.624;-50.49
1239.823;-50.45
1240.022;-50.42
1240.221;-50.36
1240.42;-50.3
1240.62;-50.21
1240.819;-50.11
1241.018;-49.98
1241.217;-49.84
1241.416;-49.69
1241.615;-49.5
1241.814;-49.32
1242.013;-49.15
1242.212;-48.96
1242.412;-48.79
1242.611;-48.59
1242.81;-48.42
1243.009;-48.26
1243.208;-48.1
1243.407;-47.99
1243.606;-47.85
1243.805;-47.75
1244.004;-47.66
1244.204;-47.59
1244.403;-47.56
1244.602;-47.51
1244.801;-47.5
1245.0;-47.52
1245.199;-47.55
1245.398;-47.61
1245.597;-47.65
1245.797;-47.75
1245.996;-47.84
1246.195;-47.94
1246.394;-48.08
1246.593;-48.18
1246.792;-48.29
1246.991;-48.36
1247.19;-48.41
1247.389;-48.43
1247.589;-48.33
1247.788;-48.2
1247.987;-47.97
1248.186;-47.66
1248.385;-47.31
1248.584;-46.86
1248.783;-46.41
1248.982;-45.91
1249.181;-45.32
1249.381;-44.91
1249.58;-44.4
1249.779;-43.92
1249.978;-43.44
1250.177;-43.0
1250.376;-42.6
1250.575;-42.18
1250.774;-41.83
1250.974;-41.49
1251.173;-41.17
1251.372;-40.9
1251.571;-40.64
1251.77;-40.42
1251.969;-40.21
1252.168;-40.03
1252.367;-39.89
1252.566;-39.78
1252.766;-39.72
1252.965;-39.67
1253.164;-39.66
1253.363;-39.7
1253.562;-39.77
1253.761;-39.89
1253.96;-40.04
1254.159;-40.24
1254.358;-40.48
1254.558;-40.76
1254.757;-41.09
1254.956;-41.42
1255.155;-41.79
1255.354;-42.15
1255.553;-42.5
1255.752;-42.81
1255.951;-43.0
1256.15;-43.1
1256.35;-43.02
1256.549;-42.78
1256.748;-42.41
1256.947;-41.87
1257.146;-41.25
1257.345;-40.57
1257.544;-39.87
1257.743;-39.17
1257.943;-38.45
1258.142;-37.79
1258.341;-37.12
1258.54;-36.51
1258.739;-35.84
1258.938;-35.39
1259.137;-34.91
1259.336;-34.45
1259.535;-34.05
1259.735;-33.66
1259.934;-33.31
1260.133;-33.03
1260.332;-32.76
1260.531;-32.55
1260.73;-32.36
1260.929;-32.21
1261.128;-32.11
1261.327;-32.03
1261.527;-32.01
1261.726;-32.0
1261.925;-32.04
1262.124;-32.12
1262.323;-32.23
1262.522;-32.4
1262.721;-32.57
1262.92;-32.8
1263.12;-33.08
1263.319;-33.38
1263.518;-33.75
1263.717;-34.13
1263.916;-34.55
1264.115;-35.0
1264.314;-35.44
1264.513;-35.89
1264.712;-36.26
1264.912;-36.53
1265.111;-36.67
1265.31;-36.62
1265.509;-36.41
1265.708;-36.0
1265.907;-35.46
1266.106;-34.85
1266.305;-34.18
1266.504;-33.54
1266.704;-32.87
1266.903;-32.25
1267.102;-31.68
1267.301;-31.14
1267.5;-30.67
1267.699;-30.2
1267.898;-29.81
1268.097;-29.46
1268.297;-29.13
1268.496;-28.88
1268.695;-28.63
1268.894;-28.43
1269.093;-28.27
1269.292;-28.14
1269.491;-28.08
1269.69;-28.02
1269.889;-28.03
1270.089;-28.07
1270.288;-28.16
1270.487;-28.32
1270.686;-28.51
1270.885;-28.77
1271.084;-29.08
1271.283;-29.46
1271.482;-29.92
1271.681;-30.44
1271.881;-31.05
1272.08;-31.73
1272.279;-32.5
1272.478;-33.35
1272.677;-34.23
1272.876;-35.13
1273.075;-35.91
1273.274;-36.44
1273.474;-36.57
1273.673;-36.22
1273.872;-35.49
1274.071;-34.51
1274.27;-33.45
1274.469;-32.4
1274.668;-31.39
1274.867;-30.46
1275.066;-29.59
1275.266;-28.82
1275.465;-28.11
1275.664;-27.46
1275.863;-26.9
1276.062;-26.38
1276.261;-25.87
1276.46;-25.54
1276.659;-25.2
1276.858;-24.89
1277.058;-24.66
1277.257;-24.47
1277.456;-24.31
1277.655;-24.23
1277.854;-24.16
1278.053;-24.14
1278.252;-24.18
1278.451;-24.25
1278.65;-24.39
1278.85;-24.54
1279.049;-24.75
1279.248;-25.02
1279.447;-25.33
1279.646;-25.71
1279.845;-26.13
1280.044;-26.61
1280.243;-27.14
1280.443;-27.72
1280.642;-28.46
1280.841;-28.96
1281.04;-29.55
1281.239;-30.01
1281.438;-30.29
1281.637;-30.29
1281.836;-29.99
1282.035;-29.45
1282.235;-28.69
1282.434;-27.84
1282.633;-26.96
1282.832;-25.95
1283.031;-25.24
1283.23;-24.46
1283.429;-23.74
1283.628;-23.05
1283.827;-22.45
1284.027;-21.88
1284.226;-21.36
1284.425;-20.9
1284.624;-20.48
1284.823;-20.12
1285.022;-19.78
1285.221;-19.49
1285.42;-19.25
1285.62;-19.03
1285.819;-18.88
1286.018;-18.74
1286.217;-18.66
1286.416;-18.61
1286.615;-18.61
1286.814;-18.67
1287.013;-18.74
1287.212;-18.87
1287.412;-19.04
1287.611;-19.27
1287.81;-19.56
1288.009;-19.89
1288.208;-20.3
1288.407;-20.76
1288.606;-21.31
1288.805;-21.96
1289.004;-22.68
1289.204;-23.54
1289.403;-24.51
1289.602;-25.64
1289.801;-26.95
1290.0;-28.76
1290.199;-30.08
1290.398;-31.58
1290.597;-32.47
1290.797;-32.06
1290.996;-30.64
1291.195;-28.89
1291.394;-27.2
1291.593;-25.47
1291.792;-24.36
1291.991;-23.24
1292.19;-22.21
1292.389;-21.33
1292.589;-20.55
1292.788;-19.86
1292.987;-19.27
1293.186;-18.73
1293.385;-18.28
1293.584;-17.86
1293.783;-17.52
1293.982;-17.24
1294.181;-16.99
1294.381;-16.81
1294.58;-16.64
1294.779;-16.53
1294.978;-16.48
1295.177;-16.45
1295.376;-16.49
1295.575;-16.53
1295.774;-16.64
1295.974;-16.78
1296.173;-16.98
1296.372;-17.24
1296.571;-17.51
1296.77;-17.87
1296.969;-18.27
1297.168;-18.73
1297.367;-19.27
1297.566;-19.85
1297.766;-20.54
1297.965;-21.28
1298.164;-22.12
1298.363;-23.05
1298.562;-24.01
1298.761;-25.04
1298.96;-25.98
1299.159;-26.74
1299.358;-27.12
1299.558;-26.98
1299.757;-26.4
1299.956;-25.48
1300.155;-24.47
1300.354;-23.44
1300.553;-22.45
1300.752;-21.56
1300.951;-20.73
1301.15;-20.0
1301.35;-19.33
1301.549;-18.74
1301.748;-18.23
1301.947;-17.76
1302.146;-17.37
1302.345;-17.01
1302.544;-16.72
1302.743;-16.49
1302.943;-16.27
1303.142;-16.14
1303.341;-16.0
1303.54;-15.97
1303.739;-15.94
1303.938;-15.96
1304.137;-16.04
1304.336;-16.14
1304.535;-16.31
1304.735;-16.49
1304.934;-16.73
1305.133;-17.05
1305.332;-17.38
1305.531;-17.81
1305.73;-18.36
1305.929;-18.82
1306.128;-19.43
1306.327;-20.14
1306.527;-20.94
1306.726;-21.85
1306.925;-22.9
1307.124;-24.08
1307.323;-25.44
1307.522;-26.92
1307.721;-28.84
1307.92;-29.83
1308.12;-30.44
1308.319;-29.99
1308.518;-28.77
1308.717;-27.28
1308.916;-25.57
1309.115;-24.52
1309.314;-23.36
1309.513;-22.36
1309.712;-21.48
1309.912;-20.71
1310.111;-20.07
1310.31;-19.48
1310.509;-18.99
1310.708;-18.55
1310.907;-18.17
1311.106;-17.89
1311.305;-17.62
1311.504;-17.45
1311.704;-17.29
1311.903;-17.19
1312.102;-17.16
1312.301;-17.16
1312.5;-17.23
1312.699;-17.31
1312.898;-17.47
1313.097;-17.67
1313.297;-17.91
1313.496;-18.24
1313.695;-18.58
1313.894;-19.01
1314.093;-19.49
1314.292;-20.05
1314.491;-20.7
1314.69;-21.42
1314.889;-22.25
1315.089;-23.19
1315.288;-24.28
1315.487;-25.55
1315.686;-26.99
1315.885;-29.03
1316.084;-30.5
1316.283;-32.22
1316.482;-33.22
1316.681;-32.83
1316.881;-31.38
1317.08;-29.66
1317.279;-28.03
1317.478;-26.6
1317.677;-25.18
1317.876;-24.31
1318.075;-23.42
1318.274;-22.62
1318.474;-21.95
1318.673;-21.39
1318.872;-20.88
1319.071;-20.48
1319.27;-20.11
1319.469;-19.82
1319.668;-19.58
1319.867;-19.39
1320.066;-19.26
1320.266;-19.16
1320.465;-19.13
1320.664;-19.13
1320.863;-19.17
1321.062;-19.26
1321.261;-19.39
1321.46;-19.58
1321.659;-19.79
1321.858;-20.06
1322.058;-20.37
1322.257;-20.72
1322.456;-21.15
1322.655;-21.61
1322.854;-22.15
1323.053;-22.73
1323.252;-23.4
1323.451;-24.14
1323.65;-24.96
1323.85;-25.9
1324.049;-26.92
1324.248;-28.08
1324.447;-29.66
1324.646;-30.81
1324.845;-32.29
1325.044;-33.73
1325.243;-34.83
1325.443;-35.15
1325.642;-34.63
1325.841;-33.55
1326.04;-32.32
1326.239;-31.13
1326.438;-30.05
1326.637;-29.11
1326.836;-28.28
1327.035;-27.58
1327.235;-26.99
1327.434;-26.47
1327.633;-25.98
1327.832;-25.69
1328.031;-25.42
1328.23;-25.19
1328.429;-25.03
1328.628;-24.9
1328.827;-24.83
1329.027;-24.83
1329.226;-24.85
1329.425;-24.93
1329.624;-25.03
1329.823;-25.18
1330.022;-25.38
1330.221;-25.62
1330.42;-25.91
1330.62;-26.22
1330.819;-26.59
1331.018;-27.0
1331.217;-27.46
1331.416;-27.97
1331.615;-28.62
1331.814;-29.13
1332.013;-29.75
1332.212;-30.44
1332.412;-31.14
1332.611;-31.88
1332.81;-32.61
1333.009;-33.31
1333.208;-33.96
1333.407;-34.48
1333.606;-34.87
1333.805;-35.06
1334.004;-35.07
1334.204;-34.93
1334.403;-34.64
1334.602;-34.29
1334.801;-33.88
1335.0;-33.48
1335.199;-33.09
1335.398;-32.72
1335.597;-32.41
1335.797;-32.13
1335.996;-31.9
1336.195;-31.71
1336.394;-31.55
1336.593;-31.46
1336.792;-31.38
1336.991;-31.38
1337.19;-31.4
1337.389;-31.47
1337.589;-31.59
1337.788;-31.74
1337.987;-31.95
1338.186;-32.18
1338.385;-32.47
1338.584;-32.8
1338.783;-33.17
1338.982;-33.61
1339.181;-34.09
1339.381;-34.64
1339.58;-35.24
1339.779;-35.91
1339.978;-36.66
1340.177;-37.48
1340.376;-38.6
1340.575;-39.44
1340.774;-40.57
1340.974;-41.8
1341.173;-43.19
1341.372;-44.67
1341.571;-46.16
1341.77;-47.48
1341.969;-48.22
1342.168;-48.15
1342.367;-47.35
1342.566;-46.25
1342.766;-45.07
1342.965;-43.98
1343.164;-43.02
1343.363;-42.17
1343.562;-41.45
1343.761;-40.84
1343.96;-40.32
1344.159;-39.9
1344.358;-39.53
1344.558;-39.25
1344.757;-39.02
1344.956;-38.83
1345.155;-38.72
1345.354;-38.64
1345.553;-38.63
1345.752;-38.64
1345.951;-38.72
1346.15;-38.84
1346.35;-38.99
1346.549;-39.22
1346.748;-39.44
1346.947;-39.73
1347.146;-40.05
1347.345;-40.4
1347.544;-40.86
1347.743;-41.36
1347.943;-41.91
1348.142;-42.47
1348.341;-43.1
1348.54;-43.77
1348.739;-44.48
1348.938;-45.3
1349.137;-46.19
1349.336;-47.14
1349.535;-48.19
1349.735;-49.45
1349.934;-50.39
1350.133;-51.58
1350.332;-52.84
1350.531;-53.84
1350.73;-54.3
1350.929;-54.17
1351.128;-53.6
1351.327;-52.84
1351.527;-52.01
1351.726;-51.25
1351.925;-50.46
1352.124;-49.72
1352.323;-49.1
1352.522;-48.6
1352.721;-48.13
1352.92;-47.72
1353.12;-47.49
1353.319;-47.17
1353.518;-46.96
1353.717;-46.82
1353.916;-46.66
1354.115;-46.61
1354.314;-46.66
1354.513;-46.74
1354.712;-46.99
1354.912;-47.22
1355.111;-47.44
1355.31;-47.6
1355.509;-47.73
1355.708;-48.11
1355.907;-48.58
1356.106;-49.01
1356.305;-49.43
1356.504;-49.92
1356.704;-50.21
1356.903;-50.82
1357.102;-51.71
1357.301;-52.6
1357.5;-53.59
1357.699;-54.58
1357.898;-55.62
1358.097;-56.7
1358.297;-58.09
1358.496;-60.01
1358.695;-61.15
1358.894;-62.5
1359.093;-63.17
1359.292;-62.89
1359.491;-62.3
1359.69;-61.22
1359.889;-59.82
1360.089;-58.49
1360.288;-57.41
1360.487;-56.43
1360.686;-55.55
1360.885;-55.23
1361.084;-54.83
1361.283;-54.34
1361.482;-53.9
1361.681;-53.69
1361.881;-53.41
1362.08;-53.29
1362.279;-53.36
1362.478;-53.43
1362.677;-53.33
1362.876;-53.08
1363.075;-52.93
1363.274;-52.64
1363.474;-52.73
1363.673;-52.86
1363.872;-53.1
1364.071;-53.43
1364.27;-53.81
1364.469;-54.31
1364.668;-55.08
1364.867;-55.73
1365.066;-56.15
1365.266;-56.78
1365.465;-57.2
1365.664;-57.87
1365.863;-58.79
1366.062;-59.48
1366.261;-60.34
1366.46;-61.38
1366.659;-62.65
1366.858;-64.05
1367.058;-65.46
1367.257;-66.83
1367.456;-67.93
1367.655;-68.39
1367.854;-68.12
1368.053;-67.12
1368.252;-65.93
1368.451;-65.13
1368.65;-64.14
1368.85;-63.09
1369.049;-62.05
1369.248;-61.23
1369.447;-60.48
1369.646;-59.94
1369.845;-59.74
1370.044;-59.43
1370.243;-59.09
1370.443;-58.77
1370.642;-58.49
1370.841;-58.55
1371.04;-58.6
1371.239;-58.6
1371.438;-58.46
1371.637;-58.38
1371.836;-58.29
1372.035;-58.47
1372.235;-58.72
1372.434;-58.91
1372.633;-59.08
1372.832;-59.29
1373.031;-59.52
1373.23;-59.88
1373.429;-60.3
1373.628;-60.73
1373.827;-61.2
1374.027;-61.71
1374.226;-62.27
1374.425;-62.88
1374.624;-63.59
1374.823;-64.36
1375.022;-65.14
1375.221;-65.86
1375.42;-66.64
1375.62;-67.3
1375.819;-68.03
1376.018;-68.56
1376.217;-68.98
1376.416;-69.11
1376.615;-69.05
1376.814;-68.89
1377.013;-68.63
1377.212;-68.26
1377.412;-67.79
1377.611;-67.24
1377.81;-66.6
1378.009;-66.2
1378.208;-65.83
1378.407;-65.6
1378.606;-65.45
1378.805;-65.41
1379.004;-65.25
1379.204;-65.03
1379.403;-64.82
1379.602;-64.62
1379.801;-64.55
1380.0;-64.56
1380.199;-64.74
1380.398;-64.94
1380.597;-65.47
1380.797;-65.99
1380.996;-66.37
1381.195;-66.52
1381.394;-66.5
1381.593;-66.46
1381.792;-66.86
1381.991;-67.26
1382.19;-67.75
1382.389;-68.46
1382.589;-69.56
1382.788;-70.47
1382.987;-71.43
1383.186;-71.83
1383.385;-72.25
1383.584;-73.16
1383.783;-73.84
1383.982;-74.19
1384.181;-74.97
1384.381;-75.42
1384.58;-75.32
1384.779;-75.44
1384.978;-74.96
1385.177;-74.72
1385.376;-74.04
1385.575;-73.33
1385.774;-73.0
1385.974;-72.4
1386.173;-71.89
1386.372;-71.29
1386.571;-71.05
1386.77;-70.38
1386.969;-69.94
1387.168;-69.56
1387.367;-69.3
1387.566;-69.2
1387.766;-69.28
1387.965;-69.22
1388.164;-69.54
1388.363;-69.52
1388.562;-69.33
1388.761;-69.26
1388.96;-69.34
1389.159;-69.22
1389.358;-69.31
1389.558;-69.43
1389.757;-69.71
1389.956;-70.13
1390.155;-70.25
1390.354;-70.66
1390.553;-71.18
1390.752;-71.69
1390.951;-71.97
1391.15;-72.36
1391.35;-72.84
1391.549;-73.48
1391.748;-74.33
1391.947;-74.47
1392.146;-75.29
1392.345;-75.78
1392.544;-77.2
1392.743;-77.69
1392.943;-77.56
1393.142;-78.32
1393.341;-78.26
1393.54;-77.65
1393.739;-77.52
1393.938;-78.42
1394.137;-76.62
1394.336;-75.73
1394.535;-76.59
1394.735;-75.64
1394.934;-75.68
1395.133;-75.33
1395.332;-75.28
1395.531;-74.91
1395.73;-74.78
1395.929;-74.43
1396.128;-74.15
1396.327;-74.14
1396.527;-74.06
1396.726;-74.36
1396.925;-73.86
1397.124;-73.78
1397.323;-73.78
1397.522;-73.65
1397.721;-73.53
1397.92;-73.65
1398.12;-74.13
1398.319;-74.02
1398.518;-74.07
1398.717;-74.41
1398.916;-74.39
1399.115;-74.47
1399.314;-74.65
1399.513;-75.34
1399.712;-75.57
1399.912;-75.84
1400.111;-76.19
1400.31;-75.87
1400.509;-76.05
1400.708;-76.05
1400.907;-76.22
1401.106;-75.75
1401.305;-75.46
1401.504;-75.06
1401.704;-75.61
1401.903;-74.86
1402.102;-75.16
1402.301;-75.35
1402.5;-74.77
1402.699;-74.78
1402.898;-74.47
1403.097;-75.15
1403.297;-74.86
1403.496;-74.55
1403.695;-74.61
1403.894;-74.8
1404.093;-75.11
1404.292;-75.05
1404.491;-75.09
1404.69;-75.13
1404.889;-76.41
1405.089;-75.97
1405.288;-76.98
1405.487;-75.47
1405.686;-76.31
1405.885;-76.11
1406.084;-76.23
1406.283;-76.81
1406.482;-76.63
1406.681;-76.61
1406.881;-77.69
1407.08;-77.39
1407.279;-78.83
1407.478;-78.26
1407.677;-77.96
1407.876;-78.26
1408.075;-79.01
1408.274;-78.55
1408.474;-78.41
1408.673;-78.71
1408.872;-79.25
1409.071;-79.01
1409.27;-78.69
1409.469;-79.22
1409.668;-78.69
1409.867;-80.86
1410.066;-79.25
1410.266;-79.52
1410.465;-79.45
1410.664;-78.41
1410.863;-80.26
1411.062;-79.66
1411.261;-78.95
1411.46;-78.95
1411.659;-77.89
1411.858;-79.22
1412.058;-78.66
1412.257;-79.83
1412.456;-79.48
1412.655;-78.28
1412.854;-79.01
1413.053;-78.55
1413.252;-78.34
1413.451;-79.32
1413.65;-79.26
1413.85;-79.26
1414.049;-79.39
1414.248;-80.11
1414.447;-78.84
1414.646;-78.45
1414.845;-80.35
1415.044;-79.77
1415.243;-79.17
1415.443;-79.95
1415.642;-78.93
1415.841;-78.7
1416.04;-81.31
1416.239;-79.53
1416.438;-78.67
1416.637;-79.11
1416.836;-79.7
1417.035;-79.33
1417.235;-80.03
1417.434;-78.78
1417.633;-78.67
1417.832;-79.39
1418.031;-78.78
1418.23;-78.4
1418.429;-79.02
1418.628;-79.2
1418.827;-79.74
1419.027;-79.53
1419.226;-79.53
1419.425;-80.31
1419.624;-78.35
1419.823;-80.11
1420.022;-79.46
1420.221;-80.35
1420.42;-80.27
1420.62;-78.35
1420.819;-78.5
1421.018;-79.81
1421.217;-79.02
1421.416;-78.61
1421.615;-78.88
1421.814;-78.68
1422.013;-79.34
1422.212;-78.43
1422.412;-78.71
1422.611;-79.37
1422.81;-77.98
1423.009;-79.12
1423.208;-78.2
1423.407;-80.04
1423.606;-78.97
1423.805;-78.25
1424.004;-78.03
1424.204;-79.75
1424.403;-78.01
1424.602;-79.68
1424.801;-78.23
1425.0;-78.88
