Wavelength (nm);Intensity (dBm)
1131.0;1131.0
1200.0;-60.74
1200.199;-60.73
1200.398;-60.72
1200.597;-60.7
1200.797;-60.63
1200.996;-60.59
1201.195;-60.58
1201.394;-60.59
1201.593;-60.53
1201.792;-60.47
1201.991;-60.44
1202.19;-60.46
1202.389;-60.43
1202.589;-60.35
1202.788;-60.32
1202.987;-60.31
1203.186;-60.29
1203.385;-60.21
1203.584;-60.14
1203.783;-60.18
1203.982;-60.18
1204.181;-60.13
1204.381;-60.1
1204.58;-60.11
1204.779;-60.18
1204.978;-60.18
1205.177;-60.15
1205.376;-60.21
1205.575;-60.27
1205.774;-60.31
1205.974;-60.29
1206.173;-60.27
1206.372;-60.32
1206.571;-60.34
1206.77;-60.3
1206.969;-60.2
1207.168;-60.18
1207.367;-60.21
1207.566;-60.14
1207.766;-60.0
1207.965;-59.98
1208.164;-59.96
1208.363;-59.9
1208.562;-59.79
1208.761;-59.72
1208.96;-59.69
1209.159;-59.63
1209.358;-59.53
1209.558;-59.44
1209.757;-59.4
1209.956;-59.33
1210.155;-59.25
1210.354;-59.12
1210.553;-59.08
1210.752;-59.03
1210.951;-58.94
1211.15;-58.81
1211.35;-58.78
1211.549;-58.77
1211.748;-58.71
1211.947;-58.65
1212.146;-58.62
1212.345;-58.65
1212.544;-58.65
1212.743;-58.62
1212.943;-58.64
1213.142;-58.68
1213.341;-58.73
1213.54;-58.73
1213.739;-58.75
1213.938;-58.77
1214.137;-58.8
1214.336;-58.81
1214.535;-58.77
1214.735;-58.79
1214.934;-58.8
1215.133;-58.75
1215.332;-58.71
1215.531;-58.69
1215.73;-58.65
1215.929;-58.58
1216.128;-58.5
1216.327;-58.45
1216.527;-58.4
1216.726;-58.31
1216.925;-58.2
1217.124;-58.09
1217.323;-58.02
1217.522;-57.89
1217.721;-57.75
1217.92;-57.61
1218.12;-57.49
1218.319;-57.36
1218.518;-57.21
1218.717;-57.07
1218.916;-56.95
1219.115;-56.83
1219.314;-56.71
1219.513;-56.6
1219.712;-56.55
1219.912;-56.47
1220.111;-56.39
1220.31;-56.35
1220.509;-56.32
1220.708;-56.3
1220.907;-56.27
1221.106;-56.24
1221.305;-56.26
1221.504;-56.24
1221.704;-56.24
1221.903;-56.24
1222.102;-56.24
1222.301;-56.27
1222.5;-56.24
1222.699;-56.28
1222.898;-56.3
1223.097;-56.31
1223.297;-56.35
1223.496;-56.36
1223.695;-56.41
1223.894;-56.45
1224.093;-56.46
1224.292;-56.52
1224.491;-56.52
1224.69;-56.56
1224.889;-56.54
1225.089;-56.51
1225.288;-56.49
1225.487;-56.41
1225.686;-56.33
1225.885;-56.22
1226.084;-56.07
1226.283;-55.94
1226.482;-55.71
1226.681;-55.58
1226.881;-55.39
1227.08;-55.21
1227.279;-55.02
1227.478;-54.83
1227.677;-54.68
1227.876;-54.51
1228.075;-54.34
1228.274;-54.19
1228.474;-54.05
1228.673;-53.93
1228.872;-53.79
1229.071;-53.66
1229.27;-53.57
1229.469;-53.46
1229.668;-53.38
1229.867;-53.29
1230.066;-53.23
1230.266;-53.18
1230.465;-53.12
1230.664;-53.11
1230.863;-53.11
1231.062;-53.13
1231.261;-53.17
1231.46;-53.22
1231.659;-53.29
1231.858;-53.34
1232.058;-53.43
1232.257;-53.53
1232.456;-53.62
1232.655;-53.72
1232.854;-53.78
1233.053;-53.86
1233.252;-53.9
1233.451;-53.91
1233.65;-53.92
1233.85;-53.89
1234.049;-53.84
1234.248;-53.76
1234.447;-53.64
1234.646;-53.55
1234.845;-53.39
1235.044;-53.24
1235.243;-53.09
1235.443;-52.91
1235.642;-52.75
1235.841;-52.56
1236.04;-52.39
1236.239;-52.21
1236.438;-52.02
1236.637;-51.87
1236.836;-51.7
1237.035;-51.55
1237.235;-51.39
1237.434;-51.24
1237.633;-51.14
1237.832;-51.02
1238.031;-50.93
1238.23;-50.84
1238.429;-50.77
1238.628;-50.73
1238.827;-50.68
1239.027;-50.66
1239.226;-50.63
1239.425;-50.61
1239.624;-50.61
1239.823;-50.57
1240.022;-50.56
1240.221;-50.51
1240.42;-50.45
1240.62;-50.4
1240.819;-50.29
1241.018;-50.17
1241.217;-50.03
1241.416;-49.88
1241.615;-49.71
1241.814;-49.52
1242.013;-49.35
1242.212;-49.14
1242.412;-48.95
1242.611;-48.76
1242.81;-48.57
1243.009;-48.39
1243.208;-48.21
1243.407;-48.05
1243.606;-47.91
1243.805;-47.77
1244.004;-47.65
1244.204;-47.55
1244.403;-47.47
1244.602;-47.4
1244.801;-47.35
1245.0;-47.33
1245.199;-47.33
1245.398;-47.35
1245.597;-47.39
1245.797;-47.46
1245.996;-47.56
1246.195;-47.65
1246.394;-47.78
1246.593;-47.92
1246.792;-48.05
1246.991;-48.19
1247.19;-48.29
1247.389;-48.38
1247.589;-48.4
1247.788;-48.37
1247.987;-48.27
1248.186;-48.06
1248.385;-47.79
1248.584;-47.44
1248.783;-47.03
1248.982;-46.58
1249.181;-46.08
1249.381;-45.49
1249.58;-45.04
1249.779;-44.54
1249.978;-44.04
1250.177;-43.56
1250.376;-43.11
1250.575;-42.64
1250.774;-42.22
1250.974;-41.84
1251.173;-41.46
1251.372;-41.12
1251.571;-40.8
1251.77;-40.51
1251.969;-40.26
1252.168;-40.02
1252.367;-39.83
1252.566;-39.66
1252.766;-39.53
1252.965;-39.44
1253.164;-39.37
1253.363;-39.36
1253.562;-39.37
1253.761;-39.43
1253.96;-39.53
1254.159;-39.66
1254.358;-39.85
1254.558;-40.05
1254.757;-40.31
1254.956;-40.58
1255.155;-40.89
1255.354;-41.23
1255.553;-41.56
1255.752;-41.89
1255.951;-42.16
1256.15;-42.37
1256.35;-42.49
1256.549;-42.47
1256.748;-42.3
1256.947;-41.97
1257.146;-41.51
1257.345;-40.95
1257.544;-40.32
1257.743;-39.66
1257.943;-38.95
1258.142;-38.27
1258.341;-37.61
1258.54;-36.96
1258.739;-36.36
1258.938;-35.63
1259.137;-35.21
1259.336;-34.71
1259.535;-34.26
1259.735;-33.85
1259.934;-33.47
1260.133;-33.15
1260.332;-32.83
1260.531;-32.57
1260.73;-32.35
1260.929;-32.15
1261.128;-32.01
1261.327;-31.87
1261.527;-31.8
1261.726;-31.75
1261.925;-31.74
1262.124;-31.77
1262.323;-31.82
1262.522;-31.93
1262.721;-32.08
1262.92;-32.25
1263.12;-32.49
1263.319;-32.75
1263.518;-33.08
1263.717;-33.44
1263.916;-33.85
1264.115;-34.31
1264.314;-34.79
1264.513;-35.32
1264.712;-35.84
1264.912;-36.33
1265.111;-36.77
1265.31;-37.05
1265.509;-37.18
1265.708;-37.1
1265.907;-36.81
1266.106;-36.34
1266.305;-35.73
1266.504;-35.07
1266.704;-34.37
1266.903;-33.68
1267.102;-33.02
1267.301;-32.36
1267.5;-31.79
1267.699;-31.24
1267.898;-30.72
1268.097;-30.26
1268.297;-29.84
1268.496;-29.48
1268.695;-29.14
1268.894;-28.84
1269.093;-28.6
1269.292;-28.38
1269.491;-28.22
1269.69;-28.09
1269.889;-28.0
1270.089;-27.98
1270.288;-27.97
1270.487;-28.04
1270.686;-28.14
1270.885;-28.3
1271.084;-28.53
1271.283;-28.79
1271.482;-29.13
1271.681;-29.52
1271.881;-29.99
1272.08;-30.54
1272.279;-31.16
1272.478;-31.87
1272.677;-32.66
1272.876;-33.55
1273.075;-34.51
1273.274;-35.51
1273.474;-36.46
1273.673;-37.16
1273.872;-37.45
1274.071;-37.17
1274.27;-36.39
1274.469;-35.33
1274.668;-34.15
1274.867;-32.99
1275.066;-31.89
1275.266;-30.88
1275.465;-29.98
1275.664;-29.15
1275.863;-28.42
1276.062;-27.74
1276.261;-27.16
1276.46;-26.64
1276.659;-26.17
1276.858;-25.71
1277.058;-25.43
1277.257;-25.16
1277.456;-24.91
1277.655;-24.73
1277.854;-24.59
1278.053;-24.48
1278.252;-24.43
1278.451;-24.41
1278.65;-24.45
1278.85;-24.54
1279.049;-24.68
1279.248;-24.87
1279.447;-25.09
1279.646;-25.38
1279.845;-25.72
1280.044;-26.14
1280.243;-26.65
1280.443;-27.21
1280.642;-27.88
1280.841;-28.73
1281.04;-29.42
1281.239;-30.26
1281.438;-31.12
1281.637;-31.85
1281.836;-32.27
1282.035;-32.27
1282.235;-31.76
1282.434;-30.89
1282.633;-29.83
1282.832;-28.69
1283.031;-27.59
1283.23;-26.54
1283.429;-25.43
1283.628;-24.68
1283.827;-23.87
1284.027;-23.14
1284.226;-22.47
1284.425;-21.87
1284.624;-21.31
1284.823;-20.82
1285.022;-20.38
1285.221;-19.97
1285.42;-19.64
1285.62;-19.32
1285.819;-19.06
1286.018;-18.84
1286.217;-18.66
1286.416;-18.54
1286.615;-18.44
1286.814;-18.39
1287.013;-18.38
1287.212;-18.4
1287.412;-18.49
1287.611;-18.6
1287.81;-18.77
1288.009;-18.98
1288.208;-19.25
1288.407;-19.58
1288.606;-19.95
1288.805;-20.41
1289.004;-20.93
1289.204;-21.53
1289.403;-22.24
1289.602;-23.03
1289.801;-23.95
1290.0;-24.99
1290.199;-26.2
1290.398;-27.57
1290.597;-29.39
1290.797;-30.54
1290.996;-31.44
1291.195;-31.39
1291.394;-30.31
1291.593;-28.76
1291.792;-27.16
1291.991;-25.47
1292.19;-24.38
1292.389;-23.24
1292.589;-22.24
1292.788;-21.33
1292.987;-20.56
1293.186;-19.86
1293.385;-19.25
1293.584;-18.72
1293.783;-18.24
1293.982;-17.85
1294.181;-17.49
1294.381;-17.18
1294.58;-16.93
1294.779;-16.71
1294.978;-16.57
1295.177;-16.43
1295.376;-16.36
1295.575;-16.32
1295.774;-16.32
1295.974;-16.38
1296.173;-16.45
1296.372;-16.59
1296.571;-16.75
1296.77;-16.97
1296.969;-17.25
1297.168;-17.55
1297.367;-17.92
1297.566;-18.31
1297.766;-18.78
1297.965;-19.31
1298.164;-19.89
1298.363;-20.55
1298.562;-21.22
1298.761;-21.95
1298.96;-22.71
1299.159;-23.45
1299.358;-24.13
1299.558;-24.63
1299.757;-24.9
1299.956;-24.88
1300.155;-24.55
1300.354;-24.01
1300.553;-23.28
1300.752;-22.52
1300.951;-21.72
1301.15;-20.97
1301.35;-20.27
1301.549;-19.61
1301.748;-19.02
1301.947;-18.46
1302.146;-17.98
1302.345;-17.54
1302.544;-17.16
1302.743;-16.84
1302.943;-16.54
1303.142;-16.31
1303.341;-16.08
1303.54;-15.98
1303.739;-15.87
1303.938;-15.8
1304.137;-15.8
1304.336;-15.8
1304.535;-15.88
1304.735;-15.97
1304.934;-16.11
1305.133;-16.32
1305.332;-16.54
1305.531;-16.85
1305.73;-17.17
1305.929;-17.56
1306.128;-18.03
1306.327;-18.65
1306.527;-19.16
1306.726;-19.84
1306.925;-20.64
1307.124;-21.53
1307.323;-22.57
1307.522;-23.76
1307.721;-25.14
1307.92;-26.72
1308.12;-28.89
1308.319;-30.27
1308.518;-31.46
1308.717;-31.39
1308.916;-30.1
1309.115;-28.38
1309.314;-26.7
1309.513;-24.94
1309.712;-23.91
1309.912;-22.79
1310.111;-21.84
1310.31;-21.0
1310.509;-20.28
1310.708;-19.64
1310.907;-19.08
1311.106;-18.63
1311.305;-18.22
1311.504;-17.88
1311.704;-17.61
1311.903;-17.38
1312.102;-17.22
1312.301;-17.09
1312.5;-17.02
1312.699;-17.01
1312.898;-17.02
1313.097;-17.11
1313.297;-17.21
1313.496;-17.39
1313.695;-17.6
1313.894;-17.86
1314.093;-18.19
1314.292;-18.55
1314.491;-19.0
1314.69;-19.49
1314.889;-20.06
1315.089;-20.72
1315.288;-21.45
1315.487;-22.32
1315.686;-23.27
1315.885;-24.38
1316.084;-25.65
1316.283;-27.1
1316.482;-29.16
1316.681;-30.63
1316.881;-32.36
1317.08;-33.34
1317.279;-32.93
1317.478;-31.48
1317.677;-29.74
1317.876;-28.13
1318.075;-26.7
1318.274;-25.29
1318.474;-24.43
1318.673;-23.56
1318.872;-22.78
1319.071;-22.12
1319.27;-21.55
1319.469;-21.06
1319.668;-20.66
1319.867;-20.3
1320.066;-20.01
1320.266;-19.77
1320.465;-19.59
1320.664;-19.48
1320.863;-19.38
1321.062;-19.35
1321.261;-19.35
1321.46;-19.4
1321.659;-19.5
1321.858;-19.63
1322.058;-19.83
1322.257;-20.04
1322.456;-20.32
1322.655;-20.63
1322.854;-20.99
1323.053;-21.43
1323.252;-21.89
1323.451;-22.43
1323.65;-23.01
1323.85;-23.68
1324.049;-24.42
1324.248;-25.25
1324.447;-26.17
1324.646;-27.18
1324.845;-28.33
1325.044;-29.88
1325.243;-31.02
1325.443;-32.48
1325.642;-33.92
1325.841;-35.02
1326.04;-35.4
1326.239;-34.97
1326.438;-33.98
1326.637;-32.78
1326.836;-31.63
1327.035;-30.57
1327.235;-29.64
1327.434;-28.82
1327.633;-28.12
1327.832;-27.53
1328.031;-27.02
1328.23;-26.61
1328.429;-26.19
1328.628;-25.97
1328.827;-25.75
1329.027;-25.58
1329.226;-25.47
1329.425;-25.4
1329.624;-25.39
1329.823;-25.41
1330.022;-25.48
1330.221;-25.6
1330.42;-25.74
1330.62;-25.96
1330.819;-26.19
1331.018;-26.47
1331.217;-26.81
1331.416;-27.17
1331.615;-27.61
1331.814;-28.06
1332.013;-28.69
1332.212;-29.14
1332.412;-29.74
1332.611;-30.41
1332.81;-31.09
1333.009;-31.83
1333.208;-32.57
1333.407;-33.33
1333.606;-34.07
1333.805;-34.74
1334.004;-35.31
1334.204;-35.7
1334.403;-35.92
1334.602;-35.91
1334.801;-35.74
1335.0;-35.44
1335.199;-35.05
1335.398;-34.63
1335.597;-34.18
1335.797;-33.79
1335.996;-33.41
1336.195;-33.06
1336.394;-32.76
1336.593;-32.49
1336.792;-32.28
1336.991;-32.11
1337.19;-31.98
1337.389;-31.91
1337.589;-31.87
1337.788;-31.89
1337.987;-31.93
1338.186;-32.02
1338.385;-32.15
1338.584;-32.33
1338.783;-32.55
1338.982;-32.79
1339.181;-33.11
1339.381;-33.45
1339.58;-33.84
1339.779;-34.28
1339.978;-34.77
1340.177;-35.33
1340.376;-35.93
1340.575;-36.6
1340.774;-37.32
1340.974;-38.1
1341.173;-39.14
1341.372;-39.9
1341.571;-40.9
1341.77;-41.94
1341.969;-43.04
1342.168;-44.08
1342.367;-45.0
1342.566;-45.65
1342.766;-45.91
1342.965;-45.76
1343.164;-45.26
1343.363;-44.6
1343.562;-43.84
1343.761;-43.11
1343.96;-42.45
1344.159;-41.82
1344.358;-41.28
1344.558;-40.81
1344.757;-40.4
1344.956;-40.06
1345.155;-39.76
1345.354;-39.54
1345.553;-39.35
1345.752;-39.23
1345.951;-39.17
1346.15;-39.13
1346.35;-39.16
1346.549;-39.22
1346.748;-39.33
1346.947;-39.46
1347.146;-39.64
1347.345;-39.86
1347.544;-40.15
1347.743;-40.51
1347.943;-40.88
1348.142;-41.28
1348.341;-41.74
1348.54;-42.19
1348.739;-42.71
1348.938;-43.28
1349.137;-43.92
1349.336;-44.6
1349.535;-45.37
1349.735;-46.21
1349.934;-47.12
1350.133;-48.16
1350.332;-49.6
1350.531;-50.6
1350.73;-51.92
1350.929;-53.24
1351.128;-54.45
1351.327;-55.32
1351.527;-55.7
1351.726;-55.5
1351.925;-54.77
1352.124;-53.83
1352.323;-52.88
1352.522;-52.04
1352.721;-51.17
1352.92;-50.44
1353.12;-49.91
1353.319;-49.31
1353.518;-48.86
1353.717;-48.48
1353.916;-48.13
1354.115;-47.86
1354.314;-47.73
1354.513;-47.62
1354.712;-47.69
1354.912;-47.77
1355.111;-47.8
1355.31;-47.81
1355.509;-47.76
1355.708;-47.99
1355.907;-48.3
1356.106;-48.53
1356.305;-48.77
1356.504;-49.03
1356.704;-49.16
1356.903;-49.55
1357.102;-50.19
1357.301;-50.82
1357.5;-51.45
1357.699;-52.12
1357.898;-52.76
1358.097;-53.42
1358.297;-54.3
1358.496;-55.3
1358.695;-56.3
1358.894;-57.41
1359.093;-58.86
1359.292;-59.5
1359.491;-60.54
1359.69;-61.28
1359.889;-61.46
1360.089;-61.02
1360.288;-60.29
1360.487;-59.35
1360.686;-58.51
1360.885;-57.93
1361.084;-57.31
1361.283;-56.6
1361.482;-55.84
1361.681;-55.56
1361.881;-55.12
1362.08;-54.81
1362.279;-54.75
1362.478;-54.63
1362.677;-54.38
1362.876;-53.97
1363.075;-53.67
1363.274;-53.29
1363.474;-53.22
1363.673;-53.22
1363.872;-53.31
1364.071;-53.51
1364.27;-53.75
1364.469;-54.11
1364.668;-54.75
1364.867;-55.18
1365.066;-55.44
1365.266;-55.86
1365.465;-56.08
1365.664;-56.55
1365.863;-57.06
1366.062;-57.57
1366.261;-58.12
1366.46;-58.95
1366.659;-59.64
1366.858;-60.62
1367.058;-61.61
1367.257;-62.63
1367.456;-63.79
1367.655;-64.78
1367.854;-65.8
1368.053;-66.29
1368.252;-66.42
1368.451;-66.5
1368.65;-66.01
1368.85;-65.2
1369.049;-64.24
1369.248;-63.37
1369.447;-62.47
1369.646;-61.81
1369.845;-61.5
1370.044;-61.02
1370.243;-60.56
1370.443;-60.04
1370.642;-59.62
1370.841;-59.58
1371.04;-59.5
1371.239;-59.36
1371.438;-59.08
1371.637;-58.88
1371.836;-58.67
1372.035;-58.74
1372.235;-58.85
1372.434;-58.9
1372.633;-58.96
1372.832;-59.02
1373.031;-59.11
1373.23;-59.32
1373.429;-59.6
1373.628;-59.87
1373.827;-60.15
1374.027;-60.52
1374.226;-60.83
1374.425;-61.27
1374.624;-61.69
1374.823;-62.17
1375.022;-62.74
1375.221;-63.18
1375.42;-63.67
1375.62;-64.15
1375.819;-64.57
1376.018;-65.04
1376.217;-65.37
1376.416;-65.75
1376.615;-65.98
1376.814;-66.13
1377.013;-66.35
1377.212;-66.34
1377.412;-66.19
1377.611;-65.96
1377.81;-65.68
1378.009;-65.41
1378.208;-65.23
1378.407;-65.02
1378.606;-65.0
1378.805;-65.0
1379.004;-64.81
1379.204;-64.61
1379.403;-64.32
1379.602;-64.1
1379.801;-63.99
1380.0;-63.98
1380.199;-64.02
1380.398;-64.18
1380.597;-64.69
1380.797;-65.15
1380.996;-65.34
1381.195;-65.53
1381.394;-65.34
1381.593;-65.18
1381.792;-65.42
1381.991;-65.64
1382.19;-65.96
1382.389;-66.59
1382.589;-67.35
1382.788;-68.21
1382.987;-68.95
1383.186;-69.31
1383.385;-69.55
1383.584;-69.73
1383.783;-70.25
1383.982;-71.07
1384.181;-71.59
1384.381;-71.9
1384.58;-72.4
1384.779;-72.98
1384.978;-73.32
1385.177;-73.2
1385.376;-73.44
1385.575;-72.84
1385.774;-72.5
1385.974;-72.0
1386.173;-71.8
1386.372;-71.47
1386.571;-70.89
1386.77;-70.46
1386.969;-70.18
1387.168;-69.76
1387.367;-69.32
1387.566;-69.03
1387.766;-69.07
1387.965;-68.98
1388.164;-69.06
1388.363;-69.07
1388.562;-68.85
1388.761;-68.65
1388.96;-68.58
1389.159;-68.43
1389.358;-68.4
1389.558;-68.66
1389.757;-68.69
1389.956;-68.94
1390.155;-69.2
1390.354;-69.47
1390.553;-69.65
1390.752;-69.91
1390.951;-70.16
1391.15;-70.45
1391.35;-70.96
1391.549;-71.36
1391.748;-71.85
1391.947;-72.3
1392.146;-73.06
1392.345;-73.67
1392.544;-74.81
1392.743;-75.67
1392.943;-76.4
1393.142;-76.49
1393.341;-76.32
1393.54;-76.62
1393.739;-77.58
1393.938;-76.49
1394.137;-77.74
1394.336;-76.26
1394.535;-75.8
1394.735;-75.33
1394.934;-75.6
1395.133;-75.89
1395.332;-74.73
1395.531;-75.04
1395.73;-74.45
1395.929;-74.05
1396.128;-73.58
1396.327;-73.3
1396.527;-73.22
1396.726;-73.26
1396.925;-72.97
1397.124;-73.15
1397.323;-72.82
1397.522;-72.43
1397.721;-72.42
1397.92;-72.63
1398.12;-72.35
1398.319;-72.51
1398.518;-72.54
1398.717;-72.86
1398.916;-73.34
1399.115;-73.34
1399.314;-73.54
1399.513;-73.55
1399.712;-74.11
1399.912;-74.72
1400.111;-74.89
1400.31;-74.85
1400.509;-74.99
1400.708;-75.84
1400.907;-76.03
1401.106;-75.79
1401.305;-75.99
1401.504;-76.5
1401.704;-76.27
1401.903;-76.28
1402.102;-75.75
1402.301;-76.2
1402.5;-76.45
1402.699;-75.72
1402.898;-75.61
1403.097;-76.3
1403.297;-76.4
1403.496;-76.14
1403.695;-75.6
1403.894;-75.42
1404.093;-75.57
1404.292;-75.99
1404.491;-75.62
1404.69;-76.23
1404.889;-75.79
1405.089;-75.46
1405.288;-76.33
1405.487;-75.81
1405.686;-75.42
1405.885;-75.9
1406.084;-75.74
1406.283;-76.35
1406.482;-76.35
1406.681;-76.47
1406.881;-76.97
1407.08;-76.44
1407.279;-76.84
1407.478;-76.75
1407.677;-77.58
1407.876;-77.07
1408.075;-77.54
1408.274;-77.67
1408.474;-78.74
1408.673;-78.39
1408.872;-80.02
1409.071;-78.34
1409.27;-79.94
1409.469;-80.42
1409.668;-79.25
1409.867;-79.13
1410.066;-78.34
1410.266;-78.55
1410.465;-78.55
1410.664;-79.07
1410.863;-79.69
1411.062;-79.52
1411.261;-80.42
1411.46;-78.69
1411.659;-79.98
1411.858;-78.98
1412.058;-79.01
1412.257;-79.13
1412.456;-79.22
1412.655;-79.32
1412.854;-80.55
1413.053;-79.01
1413.252;-78.71
1413.451;-78.44
1413.65;-78.48
1413.85;-78.35
1414.049;-79.53
1414.248;-78.75
1414.447;-78.78
1414.646;-78.27
1414.845;-79.14
1415.044;-78.7
1415.243;-79.2
1415.443;-79.81
1415.642;-80.56
1415.841;-79.46
1416.04;-78.35
1416.239;-78.87
1416.438;-79.14
1416.637;-80.19
1416.836;-78.84
1417.035;-79.36
1417.235;-79.53
1417.434;-79.95
1417.633;-78.29
1417.832;-79.7
1418.031;-80.23
1418.23;-78.02
1418.429;-79.84
1418.628;-79.53
1418.827;-79.46
1419.027;-79.67
1419.226;-79.02
1419.425;-80.23
1419.624;-79.36
1419.823;-78.84
1420.022;-78.14
1420.221;-78.78
1420.42;-78.7
1420.62;-78.05
1420.819;-79.33
1421.018;-80.19
1421.217;-79.26
1421.416;-79.53
1421.615;-78.97
1421.814;-78.91
1422.013;-79.54
1422.212;-78.57
1422.412;-79.47
1422.611;-79.24
1422.81;-79.89
1423.009;-77.96
1423.208;-79.34
1423.407;-78.79
1423.606;-78.51
1423.805;-78.03
1424.004;-79.34
1424.204;-78.73
1424.403;-78.46
1424.602;-78.51
1424.801;-78.51
1425.0;-78.15
