Wavelength (nm);Intensity (dBm)
1131.0;1131.0
1200.0;-60.63
1200.199;-60.59
1200.398;-60.56
1200.597;-60.55
1200.797;-60.54
1200.996;-60.5
1201.195;-60.46
1201.394;-60.47
1201.593;-60.5
1201.792;-60.46
1201.991;-60.4
1202.19;-60.4
1202.389;-60.41
1202.589;-60.39
1202.788;-60.3
1202.987;-60.26
1203.186;-60.27
1203.385;-60.26
1203.584;-60.18
1203.783;-60.15
1203.982;-60.15
1204.181;-60.15
1204.381;-60.07
1204.58;-60.07
1204.779;-60.09
1204.978;-60.11
1205.177;-60.09
1205.376;-60.06
1205.575;-60.07
1205.774;-60.13
1205.974;-60.14
1206.173;-60.1
1206.372;-60.09
1206.571;-60.13
1206.77;-60.14
1206.969;-60.03
1207.168;-59.98
1207.367;-60.0
1207.566;-60.0
1207.766;-59.91
1207.965;-59.82
1208.164;-59.84
1208.363;-59.82
1208.562;-59.72
1208.761;-59.65
1208.96;-59.62
1209.159;-59.59
1209.358;-59.55
1209.558;-59.43
1209.757;-59.4
1209.956;-59.38
1210.155;-59.33
1210.354;-59.24
1210.553;-59.19
1210.752;-59.18
1210.951;-59.14
1211.15;-59.04
1211.35;-58.99
1211.549;-58.99
1211.748;-58.98
1211.947;-58.89
1212.146;-58.81
1212.345;-58.87
1212.544;-58.89
1212.743;-58.85
1212.943;-58.8
1213.142;-58.83
1213.341;-58.88
1213.54;-58.85
1213.739;-58.81
1213.938;-58.82
1214.137;-58.86
1214.336;-58.82
1214.535;-58.74
1214.735;-58.74
1214.934;-58.75
1215.133;-58.69
1215.332;-58.59
1215.531;-58.54
1215.73;-58.55
1215.929;-58.49
1216.128;-58.36
1216.327;-58.3
1216.527;-58.28
1216.726;-58.21
1216.925;-58.08
1217.124;-57.96
1217.323;-57.91
1217.522;-57.84
1217.721;-57.71
1217.92;-57.56
1218.12;-57.47
1218.319;-57.39
1218.518;-57.27
1218.717;-57.13
1218.916;-57.05
1219.115;-56.97
1219.314;-56.86
1219.513;-56.75
1219.712;-56.7
1219.912;-56.68
1220.111;-56.6
1220.31;-56.53
1220.509;-56.52
1220.708;-56.54
1220.907;-56.49
1221.106;-56.43
1221.305;-56.45
1221.504;-56.46
1221.704;-56.46
1221.903;-56.41
1222.102;-56.4
1222.301;-56.44
1222.5;-56.42
1222.699;-56.4
1222.898;-56.39
1223.097;-56.42
1223.297;-56.44
1223.496;-56.39
1223.695;-56.42
1223.894;-56.45
1224.093;-56.45
1224.292;-56.46
1224.491;-56.46
1224.69;-56.5
1224.889;-56.47
1225.089;-56.43
1225.288;-56.4
1225.487;-56.36
1225.686;-56.32
1225.885;-56.21
1226.084;-56.1
1226.283;-56.02
1226.482;-55.88
1226.681;-55.68
1226.881;-55.56
1227.08;-55.45
1227.279;-55.29
1227.478;-55.12
1227.677;-54.99
1227.876;-54.87
1228.075;-54.74
1228.274;-54.58
1228.474;-54.45
1228.673;-54.38
1228.872;-54.26
1229.071;-54.14
1229.27;-54.04
1229.469;-53.96
1229.668;-53.89
1229.867;-53.76
1230.066;-53.72
1230.266;-53.67
1230.465;-53.59
1230.664;-53.55
1230.863;-53.54
1231.062;-53.56
1231.261;-53.55
1231.46;-53.56
1231.659;-53.62
1231.858;-53.66
1232.058;-53.7
1232.257;-53.73
1232.456;-53.82
1232.655;-53.89
1232.854;-53.89
1233.053;-53.93
1233.252;-53.96
1233.451;-53.95
1233.65;-53.91
1233.85;-53.86
1234.049;-53.84
1234.248;-53.73
1234.447;-53.59
1234.646;-53.49
1234.845;-53.38
1235.044;-53.22
1235.243;-53.05
1235.443;-52.9
1235.642;-52.76
1235.841;-52.56
1236.04;-52.4
1236.239;-52.23
1236.438;-52.07
1236.637;-51.9
1236.836;-51.74
1237.035;-51.62
1237.235;-51.46
1237.434;-51.3
1237.633;-51.18
1237.832;-51.09
1238.031;-50.99
1238.23;-50.88
1238.429;-50.81
1238.628;-50.77
1238.827;-50.7
1239.027;-50.66
1239.226;-50.62
1239.425;-50.6
1239.624;-50.57
1239.823;-50.53
1240.022;-50.53
1240.221;-50.48
1240.42;-50.41
1240.62;-50.34
1240.819;-50.26
1241.018;-50.15
1241.217;-50.0
1241.416;-49.86
1241.615;-49.7
1241.814;-49.52
1242.013;-49.33
1242.212;-49.15
1242.412;-48.96
1242.611;-48.75
1242.81;-48.55
1243.009;-48.38
1243.208;-48.19
1243.407;-48.02
1243.606;-47.85
1243.805;-47.72
1244.004;-47.58
1244.204;-47.44
1244.403;-47.35
1244.602;-47.25
1244.801;-47.16
1245.0;-47.12
1245.199;-47.08
1245.398;-47.07
1245.597;-47.05
1245.797;-47.07
1245.996;-47.11
1246.195;-47.15
1246.394;-47.23
1246.593;-47.31
1246.792;-47.41
1246.991;-47.5
1247.19;-47.59
1247.389;-47.68
1247.589;-47.71
1247.788;-47.73
1247.987;-47.71
1248.186;-47.61
1248.385;-47.47
1248.584;-47.23
1248.783;-46.96
1248.982;-46.63
1249.181;-46.24
1249.381;-45.83
1249.58;-45.3
1249.779;-44.92
1249.978;-44.45
1250.177;-43.99
1250.376;-43.54
1250.575;-43.06
1250.774;-42.64
1250.974;-42.22
1251.173;-41.81
1251.372;-41.44
1251.571;-41.08
1251.77;-40.75
1251.969;-40.43
1252.168;-40.13
1252.367;-39.87
1252.566;-39.63
1252.766;-39.43
1252.965;-39.24
1253.164;-39.08
1253.363;-38.95
1253.562;-38.85
1253.761;-38.78
1253.96;-38.73
1254.159;-38.7
1254.358;-38.7
1254.558;-38.73
1254.757;-38.78
1254.956;-38.82
1255.155;-38.9
1255.354;-38.97
1255.553;-39.04
1255.752;-39.11
1255.951;-39.14
1256.15;-39.17
1256.35;-39.15
1256.549;-39.09
1256.748;-38.99
1256.947;-38.81
1257.146;-38.6
1257.345;-38.32
1257.544;-38.01
1257.743;-37.66
1257.943;-37.26
1258.142;-36.86
1258.341;-36.42
1258.54;-36.0
1258.739;-35.49
1258.938;-35.14
1259.137;-34.75
1259.336;-34.36
1259.535;-34.0
1259.735;-33.64
1259.934;-33.31
1260.133;-33.03
1260.332;-32.76
1260.531;-32.54
1260.73;-32.32
1260.929;-32.14
1261.128;-32.0
1261.327;-31.88
1261.527;-31.82
1261.726;-31.75
1261.925;-31.74
1262.124;-31.77
1262.323;-31.82
1262.522;-31.94
1262.721;-32.07
1262.92;-32.25
1263.12;-32.48
1263.319;-32.76
1263.518;-33.12
1263.717;-33.51
1263.916;-33.98
1264.115;-34.52
1264.314;-35.15
1264.513;-35.9
1264.712;-36.72
1264.912;-37.65
1265.111;-38.92
1265.31;-39.84
1265.509;-40.92
1265.708;-41.76
1265.907;-42.09
1266.106;-41.7
1266.305;-40.74
1266.504;-39.5
1266.704;-38.19
1266.903;-36.94
1267.102;-35.59
1267.301;-34.73
1267.5;-33.79
1267.699;-32.95
1267.898;-32.18
1268.097;-31.49
1268.297;-30.88
1268.496;-30.32
1268.695;-29.82
1268.894;-29.36
1269.093;-28.95
1269.292;-28.61
1269.491;-28.31
1269.69;-28.05
1269.889;-27.83
1270.089;-27.65
1270.288;-27.52
1270.487;-27.43
1270.686;-27.39
1270.885;-27.37
1271.084;-27.4
1271.283;-27.49
1271.482;-27.6
1271.681;-27.76
1271.881;-27.95
1272.08;-28.19
1272.279;-28.48
1272.478;-28.79
1272.677;-29.14
1272.876;-29.5
1273.075;-29.9
1273.274;-30.3
1273.474;-30.69
1273.673;-31.07
1273.872;-31.37
1274.071;-31.59
1274.27;-31.7
1274.469;-31.68
1274.668;-31.54
1274.867;-31.24
1275.066;-30.85
1275.266;-30.37
1275.465;-29.85
1275.664;-29.32
1275.863;-28.77
1276.062;-28.25
1276.261;-27.74
1276.46;-27.26
1276.659;-26.83
1276.858;-26.42
1277.058;-26.02
1277.257;-25.74
1277.456;-25.49
1277.655;-25.24
1277.854;-25.04
1278.053;-24.89
1278.252;-24.76
1278.451;-24.69
1278.65;-24.63
1278.85;-24.62
1279.049;-24.66
1279.248;-24.73
1279.447;-24.86
1279.646;-25.01
1279.845;-25.21
1280.044;-25.46
1280.243;-25.75
1280.443;-26.09
1280.642;-26.46
1280.841;-26.87
1281.04;-27.32
1281.239;-27.76
1281.438;-28.29
1281.637;-28.59
1281.836;-28.89
1282.035;-29.02
1282.235;-28.98
1282.434;-28.72
1282.633;-28.28
1282.832;-27.7
1283.031;-27.02
1283.23;-26.3
1283.429;-25.42
1283.628;-24.82
1283.827;-24.11
1284.027;-23.44
1284.226;-22.82
1284.425;-22.22
1284.624;-21.7
1284.823;-21.18
1285.022;-20.72
1285.221;-20.31
1285.42;-19.93
1285.62;-19.6
1285.819;-19.29
1286.018;-19.04
1286.217;-18.82
1286.416;-18.63
1286.615;-18.52
1286.814;-18.4
1287.013;-18.33
1287.212;-18.31
1287.412;-18.32
1287.611;-18.39
1287.81;-18.48
1288.009;-18.62
1288.208;-18.81
1288.407;-19.04
1288.606;-19.34
1288.805;-19.67
1289.004;-20.07
1289.204;-20.53
1289.403;-21.06
1289.602;-21.69
1289.801;-22.37
1290.0;-23.17
1290.199;-24.06
1290.398;-25.06
1290.597;-26.21
1290.797;-27.41
1290.996;-28.82
1291.195;-29.55
1291.394;-29.94
1291.593;-29.55
1291.792;-28.58
1291.991;-27.31
1292.19;-25.81
1292.389;-24.77
1292.589;-23.63
1292.788;-22.62
1292.987;-21.7
1293.186;-20.91
1293.385;-20.18
1293.584;-19.53
1293.783;-18.98
1293.982;-18.48
1294.181;-18.05
1294.381;-17.66
1294.58;-17.32
1294.779;-17.05
1294.978;-16.81
1295.177;-16.63
1295.376;-16.48
1295.575;-16.37
1295.774;-16.31
1295.974;-16.28
1296.173;-16.31
1296.372;-16.37
1296.571;-16.48
1296.77;-16.63
1296.969;-16.83
1297.168;-17.09
1297.367;-17.39
1297.566;-17.74
1297.766;-18.14
1297.965;-18.62
1298.164;-19.18
1298.363;-19.8
1298.562;-20.52
1298.761;-21.33
1298.96;-22.27
1299.159;-23.34
1299.358;-24.55
1299.558;-25.93
1299.757;-27.44
1299.956;-29.31
1300.155;-30.17
1300.354;-30.42
1300.553;-29.57
1300.752;-28.12
1300.951;-26.54
1301.15;-24.81
1301.35;-23.73
1301.549;-22.57
1301.748;-21.57
1301.947;-20.65
1302.146;-19.87
1302.345;-19.18
1302.544;-18.58
1302.743;-18.06
1302.943;-17.58
1303.142;-17.19
1303.341;-16.84
1303.54;-16.55
1303.739;-16.32
1303.938;-16.08
1304.137;-15.99
1304.336;-15.87
1304.535;-15.82
1304.735;-15.79
1304.934;-15.81
1305.133;-15.9
1305.332;-15.99
1305.531;-16.16
1305.73;-16.34
1305.929;-16.58
1306.128;-16.89
1306.327;-17.22
1306.527;-17.63
1306.726;-18.08
1306.925;-18.73
1307.124;-19.22
1307.323;-19.89
1307.522;-20.67
1307.721;-21.52
1307.92;-22.49
1308.12;-23.57
1308.319;-24.74
1308.518;-26.0
1308.717;-27.21
1308.916;-28.19
1309.115;-28.72
1309.314;-28.42
1309.513;-27.57
1309.712;-26.44
1309.912;-25.04
1310.111;-24.11
1310.31;-23.07
1310.509;-22.15
1310.708;-21.32
1310.907;-20.57
1311.106;-19.94
1311.305;-19.37
1311.504;-18.88
1311.704;-18.47
1311.903;-18.11
1312.102;-17.82
1312.301;-17.57
1312.5;-17.39
1312.699;-17.25
1312.898;-17.14
1313.097;-17.11
1313.297;-17.09
1313.496;-17.15
1313.695;-17.23
1313.894;-17.35
1314.093;-17.55
1314.292;-17.76
1314.491;-18.04
1314.69;-18.35
1314.889;-18.72
1315.089;-19.16
1315.288;-19.64
1315.487;-20.21
1315.686;-20.82
1315.885;-21.52
1316.084;-22.3
1316.283;-23.15
1316.482;-24.12
1316.681;-25.14
1316.881;-26.26
1317.08;-27.38
1317.279;-28.64
1317.478;-29.22
1317.677;-29.51
1317.876;-29.27
1318.075;-28.56
1318.274;-27.64
1318.474;-26.62
1318.673;-25.51
1318.872;-24.75
1319.071;-23.95
1319.27;-23.22
1319.469;-22.57
1319.668;-22.02
1319.867;-21.51
1320.066;-21.09
1320.266;-20.72
1320.465;-20.41
1320.664;-20.17
1320.863;-19.96
1321.062;-19.81
1321.261;-19.69
1321.46;-19.62
1321.659;-19.6
1321.858;-19.61
1322.058;-19.67
1322.257;-19.76
1322.456;-19.9
1322.655;-20.07
1322.854;-20.28
1323.053;-20.55
1323.252;-20.83
1323.451;-21.17
1323.65;-21.54
1323.85;-21.95
1324.049;-22.43
1324.248;-22.93
1324.447;-23.48
1324.646;-24.06
1324.845;-24.68
1325.044;-25.36
1325.243;-26.05
1325.443;-26.76
1325.642;-27.47
1325.841;-28.13
1326.04;-28.84
1326.239;-29.2
1326.438;-29.5
1326.637;-29.62
1326.836;-29.58
1327.035;-29.36
1327.235;-29.05
1327.434;-28.66
1327.633;-28.24
1327.832;-27.84
1328.031;-27.43
1328.23;-27.07
1328.429;-26.73
1328.628;-26.44
1328.827;-26.14
1329.027;-25.98
1329.226;-25.81
1329.425;-25.69
1329.624;-25.61
1329.823;-25.55
1330.022;-25.55
1330.221;-25.57
1330.42;-25.63
1330.62;-25.73
1330.819;-25.86
1331.018;-26.04
1331.217;-26.23
1331.416;-26.47
1331.615;-26.74
1331.814;-27.03
1332.013;-27.37
1332.212;-27.72
1332.412;-28.1
1332.611;-28.6
1332.81;-28.96
1333.009;-29.39
1333.208;-29.83
1333.407;-30.27
1333.606;-30.7
1333.805;-31.12
1334.004;-31.48
1334.204;-31.81
1334.403;-32.07
1334.602;-32.27
1334.801;-32.41
1335.0;-32.46
1335.199;-32.48
1335.398;-32.42
1335.597;-32.34
1335.797;-32.24
1335.996;-32.11
1336.195;-32.0
1336.394;-31.86
1336.593;-31.74
1336.792;-31.64
1336.991;-31.56
1337.19;-31.52
1337.389;-31.5
1337.589;-31.51
1337.788;-31.54
1337.987;-31.61
1338.186;-31.72
1338.385;-31.85
1338.584;-32.03
1338.783;-32.23
1338.982;-32.48
1339.181;-32.77
1339.381;-33.1
1339.58;-33.48
1339.779;-33.89
1339.978;-34.37
1340.177;-34.89
1340.376;-35.47
1340.575;-36.12
1340.774;-36.82
1340.974;-37.61
1341.173;-38.65
1341.372;-39.45
1341.571;-40.51
1341.77;-41.73
1341.969;-43.11
1342.168;-44.66
1342.367;-46.42
1342.566;-48.28
1342.766;-50.44
1342.965;-51.07
1343.164;-50.68
1343.363;-49.39
1343.562;-47.84
1343.761;-46.39
1343.96;-44.96
1344.159;-44.1
1344.358;-43.2
1344.558;-42.46
1344.757;-41.8
1344.956;-41.25
1345.155;-40.78
1345.354;-40.4
1345.553;-40.11
1345.752;-39.87
1345.951;-39.7
1346.15;-39.56
1346.35;-39.49
1346.549;-39.49
1346.748;-39.5
1346.947;-39.57
1347.146;-39.66
1347.345;-39.8
1347.544;-40.03
1347.743;-40.3
1347.943;-40.62
1348.142;-40.92
1348.341;-41.3
1348.54;-41.67
1348.739;-42.1
1348.938;-42.6
1349.137;-43.14
1349.336;-43.74
1349.535;-44.39
1349.735;-45.1
1349.934;-45.9
1350.133;-46.8
1350.332;-47.85
1350.531;-49.25
1350.73;-50.28
1350.929;-51.64
1351.128;-53.1
1351.327;-54.6
1351.527;-56.04
1351.726;-57.14
1351.925;-57.39
1352.124;-56.81
1352.323;-55.77
1352.522;-54.61
1352.721;-53.42
1352.92;-52.37
1353.12;-51.61
1353.319;-50.78
1353.518;-50.12
1353.717;-49.56
1353.916;-49.03
1354.115;-48.63
1354.314;-48.37
1354.513;-48.16
1354.712;-48.11
1354.912;-48.09
1355.111;-48.01
1355.31;-47.93
1355.509;-47.79
1355.708;-47.93
1355.907;-48.16
1356.106;-48.3
1356.305;-48.43
1356.504;-48.63
1356.704;-48.65
1356.903;-48.96
1357.102;-49.51
1357.301;-50.03
1357.5;-50.56
1357.699;-51.13
1357.898;-51.66
1358.097;-52.2
1358.297;-52.97
1358.496;-53.87
1358.695;-54.77
1358.894;-55.83
1359.093;-57.01
1359.292;-58.12
1359.491;-59.96
1359.69;-61.18
1359.889;-62.59
1360.089;-63.57
1360.288;-63.68
1360.487;-63.04
1360.686;-62.05
1360.885;-61.14
1361.084;-60.15
1361.283;-59.04
1361.482;-58.05
1361.681;-57.45
1361.881;-56.72
1362.08;-56.08
1362.279;-55.96
1362.478;-55.69
1362.677;-55.27
1362.876;-54.71
1363.075;-54.29
1363.274;-53.79
1363.474;-53.62
1363.673;-53.52
1363.872;-53.52
1364.071;-53.63
1364.27;-53.78
1364.469;-54.05
1364.668;-54.6
1364.867;-54.94
1365.066;-55.07
1365.266;-55.45
1365.465;-55.58
1365.664;-55.95
1365.863;-56.35
1366.062;-56.78
1366.261;-57.22
1366.46;-57.8
1366.659;-58.73
1366.858;-59.48
1367.058;-60.4
1367.257;-61.42
1367.456;-62.65
1367.655;-63.84
1367.854;-65.22
1368.053;-66.59
1368.252;-67.62
1368.451;-68.67
1368.65;-68.8
1368.85;-68.17
1369.049;-67.14
1369.248;-66.06
1369.447;-64.87
1369.646;-63.91
1369.845;-63.36
1370.044;-62.62
1370.243;-61.9
1370.443;-61.21
1370.642;-60.64
1370.841;-60.49
1371.04;-60.26
1371.239;-59.99
1371.438;-59.6
1371.637;-59.28
1371.836;-59.0
1372.035;-58.97
1372.235;-59.03
1372.434;-59.01
1372.633;-58.99
1372.832;-58.99
1373.031;-59.03
1373.23;-59.2
1373.429;-59.41
1373.628;-59.65
1373.827;-59.88
1374.027;-60.2
1374.226;-60.53
1374.425;-60.93
1374.624;-61.39
1374.823;-61.91
1375.022;-62.49
1375.221;-63.01
1375.42;-63.57
1375.62;-64.18
1375.819;-64.77
1376.018;-65.57
1376.217;-66.26
1376.416;-66.86
1376.615;-67.38
1376.814;-67.86
1377.013;-68.36
1377.212;-68.68
1377.412;-68.57
1377.611;-68.39
1377.81;-67.98
1378.009;-67.58
1378.208;-67.24
1378.407;-66.91
1378.606;-66.64
1378.805;-66.46
1379.004;-66.06
1379.204;-65.62
1379.403;-65.22
1379.602;-64.97
1379.801;-64.6
1380.0;-64.5
1380.199;-64.47
1380.398;-64.4
1380.597;-64.8
1380.797;-65.15
1380.996;-65.22
1381.195;-65.16
1381.394;-64.99
1381.593;-64.73
1381.792;-64.92
1381.991;-65.08
1382.19;-65.35
1382.389;-65.78
1382.589;-66.54
1382.788;-67.29
1382.987;-67.95
1383.186;-68.32
1383.385;-68.44
1383.584;-68.69
1383.783;-69.35
1383.982;-70.03
1384.181;-70.79
1384.381;-71.34
1384.58;-72.35
1384.779;-72.96
1384.978;-74.13
1385.177;-74.9
1385.376;-75.24
1385.575;-75.4
1385.774;-74.9
1385.974;-74.85
1386.173;-74.38
1386.372;-73.95
1386.571;-73.3
1386.77;-72.96
1386.969;-72.42
1387.168;-71.61
1387.367;-70.98
1387.566;-70.44
1387.766;-70.09
1387.965;-70.16
1388.164;-70.16
1388.363;-69.8
1388.562;-69.35
1388.761;-68.99
1388.96;-68.8
1389.159;-68.61
1389.358;-68.54
1389.558;-68.47
1389.757;-68.53
1389.956;-68.68
1390.155;-68.79
1390.354;-68.76
1390.553;-68.96
1390.752;-69.02
1390.951;-69.24
1391.15;-69.67
1391.35;-69.94
1391.549;-70.16
1391.748;-70.75
1391.947;-71.19
1392.146;-71.56
1392.345;-72.26
1392.544;-73.21
1392.743;-73.61
1392.943;-74.47
1393.142;-74.75
1393.341;-75.4
1393.54;-75.81
1393.739;-76.34
1393.938;-76.45
1394.137;-77.35
1394.336;-76.99
1394.535;-77.65
1394.735;-77.74
1394.934;-77.54
1395.133;-77.29
1395.332;-77.18
1395.531;-76.88
1395.73;-76.7
1395.929;-75.52
1396.128;-74.84
1396.327;-74.85
1396.527;-74.63
1396.726;-74.38
1396.925;-73.78
1397.124;-74.06
1397.323;-73.45
1397.522;-73.21
1397.721;-73.01
1397.92;-72.83
1398.12;-72.51
1398.319;-72.65
1398.518;-72.57
1398.717;-72.62
1398.916;-72.55
1399.115;-72.76
1399.314;-73.1
1399.513;-73.01
1399.712;-73.35
1399.912;-73.79
1400.111;-73.34
1400.31;-73.66
1400.509;-74.14
1400.708;-75.32
1400.907;-74.84
1401.106;-75.11
1401.305;-75.24
1401.504;-75.3
1401.704;-75.6
1401.903;-75.26
1402.102;-75.29
1402.301;-75.16
1402.5;-75.67
1402.699;-75.21
1402.898;-75.18
1403.097;-75.58
1403.297;-75.72
1403.496;-75.47
1403.695;-75.78
1403.894;-75.28
1404.093;-75.82
1404.292;-76.17
1404.491;-75.91
1404.69;-75.75
1404.889;-75.53
1405.089;-75.75
1405.288;-76.38
1405.487;-75.85
1405.686;-75.97
1405.885;-75.28
1406.084;-75.35
1406.283;-75.58
1406.482;-75.9
1406.681;-76.18
1406.881;-76.49
1407.08;-76.18
1407.279;-76.72
1407.478;-77.58
1407.677;-77.67
1407.876;-77.2
1408.075;-77.2
1408.274;-76.82
1408.474;-78.18
1408.673;-78.13
1408.872;-78.18
1409.071;-78.01
1409.27;-78.55
1409.469;-79.52
1409.668;-78.69
1409.867;-79.38
1410.066;-78.74
1410.266;-79.48
1410.465;-78.77
1410.664;-78.47
1410.863;-79.1
1411.062;-78.71
1411.261;-78.52
1411.46;-78.92
1411.659;-79.8
1411.858;-79.16
1412.058;-78.71
1412.257;-78.71
1412.456;-80.02
1412.655;-79.25
1412.854;-80.5
1413.053;-80.26
1413.252;-79.13
1413.451;-78.34
1413.65;-79.3
1413.85;-78.96
1414.049;-79.11
1414.248;-78.7
1414.447;-79.95
1414.646;-82.27
1414.845;-80.07
1415.044;-80.23
1415.243;-79.92
1415.443;-78.48
1415.642;-79.36
1415.841;-79.74
1416.04;-79.53
1416.239;-79.63
1416.438;-78.75
1416.637;-78.87
1416.836;-79.6
1417.035;-78.87
1417.235;-79.3
1417.434;-79.88
1417.633;-79.63
1417.832;-79.84
1418.031;-79.95
1418.23;-78.61
1418.429;-78.32
1418.628;-79.74
1418.827;-77.59
1419.027;-79.23
1419.226;-78.53
1419.425;-80.19
1419.624;-79.11
1419.823;-80.11
1420.022;-78.29
1420.221;-78.84
1420.42;-79.53
1420.62;-78.61
1420.819;-78.1
1421.018;-80.03
1421.217;-80.56
1421.416;-80.78
1421.615;-78.33
1421.814;-78.91
1422.013;-79.24
1422.212;-77.96
1422.412;-77.78
1422.611;-79.37
1422.81;-79.78
1423.009;-79.4
1423.208;-78.76
1423.407;-79.0
1423.606;-77.49
1423.805;-78.57
1424.004;-79.34
1424.204;-80.04
1424.403;-77.91
1424.602;-79.03
1424.801;-78.73
1425.0;-78.15
