Wavelength (nm);Intensity (dBm)
1131.0;1131.0
1200.0;-60.58
1200.199;-60.53
1200.398;-60.5
1200.597;-60.51
1200.797;-60.48
1200.996;-60.38
1201.195;-60.34
1201.394;-60.36
1201.593;-60.38
1201.792;-60.33
1201.991;-60.23
1202.19;-60.27
1202.389;-60.27
1202.589;-60.23
1202.788;-60.14
1202.987;-60.13
1203.186;-60.14
1203.385;-60.1
1203.584;-60.05
1203.783;-60.0
1203.982;-60.03
1204.181;-60.04
1204.381;-59.97
1204.58;-59.95
1204.779;-59.99
1204.978;-60.04
1205.177;-60.02
1205.376;-59.99
1205.575;-60.03
1205.774;-60.08
1205.974;-60.06
1206.173;-60.06
1206.372;-60.05
1206.571;-60.11
1206.77;-60.07
1206.969;-59.98
1207.168;-59.94
1207.367;-59.94
1207.566;-59.92
1207.766;-59.81
1207.965;-59.74
1208.164;-59.76
1208.363;-59.7
1208.562;-59.62
1208.761;-59.51
1208.96;-59.47
1209.159;-59.46
1209.358;-59.36
1209.558;-59.27
1209.757;-59.22
1209.956;-59.22
1210.155;-59.16
1210.354;-59.02
1210.553;-58.97
1210.752;-58.99
1210.951;-58.93
1211.15;-58.83
1211.35;-58.74
1211.549;-58.76
1211.748;-58.77
1211.947;-58.67
1212.146;-58.64
1212.345;-58.67
1212.544;-58.68
1212.743;-58.64
1212.943;-58.61
1213.142;-58.68
1213.341;-58.69
1213.54;-58.67
1213.739;-58.63
1213.938;-58.65
1214.137;-58.71
1214.336;-58.66
1214.535;-58.61
1214.735;-58.6
1214.934;-58.62
1215.133;-58.58
1215.332;-58.46
1215.531;-58.41
1215.73;-58.39
1215.929;-58.31
1216.128;-58.2
1216.327;-58.11
1216.527;-58.08
1216.726;-58.0
1216.925;-57.85
1217.124;-57.75
1217.323;-57.67
1217.522;-57.58
1217.721;-57.44
1217.92;-57.3
1218.12;-57.23
1218.319;-57.13
1218.518;-56.99
1218.717;-56.84
1218.916;-56.77
1219.115;-56.72
1219.314;-56.6
1219.513;-56.5
1219.712;-56.47
1219.912;-56.44
1220.111;-56.4
1220.31;-56.34
1220.509;-56.35
1220.708;-56.38
1220.907;-56.36
1221.106;-56.34
1221.305;-56.37
1221.504;-56.41
1221.704;-56.41
1221.903;-56.4
1222.102;-56.44
1222.301;-56.48
1222.5;-56.47
1222.699;-56.47
1222.898;-56.51
1223.097;-56.55
1223.297;-56.56
1223.496;-56.54
1223.695;-56.56
1223.894;-56.6
1224.093;-56.59
1224.292;-56.56
1224.491;-56.54
1224.69;-56.55
1224.889;-56.49
1225.089;-56.43
1225.288;-56.34
1225.487;-56.27
1225.686;-56.16
1225.885;-56.01
1226.084;-55.89
1226.283;-55.73
1226.482;-55.59
1226.681;-55.39
1226.881;-55.23
1227.08;-55.1
1227.279;-54.93
1227.478;-54.74
1227.677;-54.61
1227.876;-54.49
1228.075;-54.36
1228.274;-54.21
1228.474;-54.1
1228.673;-54.04
1228.872;-53.93
1229.071;-53.83
1229.27;-53.76
1229.469;-53.7
1229.668;-53.64
1229.867;-53.56
1230.066;-53.54
1230.266;-53.52
1230.465;-53.47
1230.664;-53.45
1230.863;-53.47
1231.062;-53.51
1231.261;-53.52
1231.46;-53.55
1231.659;-53.61
1231.858;-53.66
1232.058;-53.71
1232.257;-53.74
1232.456;-53.82
1232.655;-53.87
1232.854;-53.87
1233.053;-53.89
1233.252;-53.9
1233.451;-53.87
1233.65;-53.81
1233.85;-53.73
1234.049;-53.69
1234.248;-53.55
1234.447;-53.39
1234.646;-53.27
1234.845;-53.14
1235.044;-52.97
1235.243;-52.79
1235.443;-52.63
1235.642;-52.48
1235.841;-52.29
1236.04;-52.13
1236.239;-51.98
1236.438;-51.83
1236.637;-51.66
1236.836;-51.51
1237.035;-51.41
1237.235;-51.27
1237.434;-51.14
1237.633;-51.04
1237.832;-50.96
1238.031;-50.88
1238.23;-50.79
1238.429;-50.74
1238.628;-50.71
1238.827;-50.66
1239.027;-50.64
1239.226;-50.62
1239.425;-50.62
1239.624;-50.58
1239.823;-50.54
1240.022;-50.55
1240.221;-50.49
1240.42;-50.42
1240.62;-50.34
1240.819;-50.26
1241.018;-50.13
1241.217;-49.98
1241.416;-49.84
1241.615;-49.66
1241.814;-49.46
1242.013;-49.27
1242.212;-49.08
1242.412;-48.9
1242.611;-48.68
1242.81;-48.49
1243.009;-48.32
1243.208;-48.14
1243.407;-47.98
1243.606;-47.82
1243.805;-47.7
1244.004;-47.57
1244.204;-47.46
1244.403;-47.4
1244.602;-47.32
1244.801;-47.26
1245.0;-47.24
1245.199;-47.23
1245.398;-47.25
1245.597;-47.25
1245.797;-47.31
1245.996;-47.37
1246.195;-47.44
1246.394;-47.55
1246.593;-47.64
1246.792;-47.74
1246.991;-47.83
1247.19;-47.92
1247.389;-47.99
1247.589;-47.99
1247.788;-47.96
1247.987;-47.87
1248.186;-47.71
1248.385;-47.48
1248.584;-47.17
1248.783;-46.83
1248.982;-46.44
1249.181;-46.0
1249.381;-45.48
1249.58;-45.07
1249.779;-44.61
1249.978;-44.12
1250.177;-43.66
1250.376;-43.22
1250.575;-42.77
1250.774;-42.36
1250.974;-41.96
1251.173;-41.58
1251.372;-41.23
1251.571;-40.91
1251.77;-40.61
1251.969;-40.32
1252.168;-40.07
1252.367;-39.85
1252.566;-39.65
1252.766;-39.49
1252.965;-39.34
1253.164;-39.22
1253.363;-39.13
1253.562;-39.07
1253.761;-39.05
1253.96;-39.04
1254.159;-39.06
1254.358;-39.09
1254.558;-39.15
1254.757;-39.23
1254.956;-39.31
1255.155;-39.41
1255.354;-39.49
1255.553;-39.57
1255.752;-39.63
1255.951;-39.65
1256.15;-39.66
1256.35;-39.58
1256.549;-39.47
1256.748;-39.31
1256.947;-39.07
1257.146;-38.79
1257.345;-38.44
1257.544;-38.07
1257.743;-37.66
1257.943;-37.22
1258.142;-36.79
1258.341;-36.33
1258.54;-35.83
1258.739;-35.46
1258.938;-35.04
1259.137;-34.64
1259.336;-34.26
1259.535;-33.91
1259.735;-33.57
1259.934;-33.27
1260.133;-33.0
1260.332;-32.74
1260.531;-32.54
1260.73;-32.34
1260.929;-32.19
1261.128;-32.05
1261.327;-31.96
1261.527;-31.92
1261.726;-31.88
1261.925;-31.89
1262.124;-31.93
1262.323;-32.01
1262.522;-32.15
1262.721;-32.31
1262.92;-32.53
1263.12;-32.78
1263.319;-33.09
1263.518;-33.48
1263.717;-33.9
1263.916;-34.4
1264.115;-34.97
1264.314;-35.63
1264.513;-36.39
1264.712;-37.23
1264.912;-38.36
1265.111;-39.17
1265.31;-40.16
1265.509;-41.02
1265.708;-41.52
1265.907;-41.5
1266.106;-40.88
1266.305;-39.9
1266.504;-38.72
1266.704;-37.53
1266.903;-36.4
1267.102;-35.17
1267.301;-34.38
1267.5;-33.52
1267.699;-32.74
1267.898;-32.01
1268.097;-31.37
1268.297;-30.8
1268.496;-30.28
1268.695;-29.81
1268.894;-29.38
1269.093;-29.01
1269.292;-28.69
1269.491;-28.41
1269.69;-28.19
1269.889;-27.98
1270.089;-27.82
1270.288;-27.72
1270.487;-27.66
1270.686;-27.64
1270.885;-27.64
1271.084;-27.69
1271.283;-27.79
1271.482;-27.92
1271.681;-28.11
1271.881;-28.32
1272.08;-28.58
1272.279;-28.88
1272.478;-29.21
1272.677;-29.59
1272.876;-29.97
1273.075;-30.38
1273.274;-30.79
1273.474;-31.2
1273.673;-31.58
1273.872;-31.88
1274.071;-32.09
1274.27;-32.17
1274.469;-32.1
1274.668;-31.9
1274.867;-31.55
1275.066;-31.11
1275.266;-30.59
1275.465;-30.04
1275.664;-29.49
1275.863;-28.92
1276.062;-28.39
1276.261;-27.87
1276.46;-27.39
1276.659;-26.95
1276.858;-26.55
1277.058;-26.2
1277.257;-25.83
1277.456;-25.62
1277.655;-25.38
1277.854;-25.18
1278.053;-25.03
1278.252;-24.91
1278.451;-24.84
1278.65;-24.79
1278.85;-24.8
1279.049;-24.84
1279.248;-24.92
1279.447;-25.05
1279.646;-25.21
1279.845;-25.42
1280.044;-25.68
1280.243;-25.98
1280.443;-26.34
1280.642;-26.72
1280.841;-27.15
1281.04;-27.61
1281.239;-28.07
1281.438;-28.59
1281.637;-28.89
1281.836;-29.16
1282.035;-29.26
1282.235;-29.17
1282.434;-28.86
1282.633;-28.38
1282.832;-27.77
1283.031;-27.05
1283.23;-26.32
1283.429;-25.43
1283.628;-24.82
1283.827;-24.11
1284.027;-23.44
1284.226;-22.81
1284.425;-22.22
1284.624;-21.69
1284.823;-21.18
1285.022;-20.73
1285.221;-20.31
1285.42;-19.93
1285.62;-19.61
1285.819;-19.31
1286.018;-19.06
1286.217;-18.84
1286.416;-18.66
1286.615;-18.54
1286.814;-18.43
1287.013;-18.37
1287.212;-18.34
1287.412;-18.35
1287.611;-18.42
1287.81;-18.51
1288.009;-18.66
1288.208;-18.84
1288.407;-19.07
1288.606;-19.37
1288.805;-19.7
1289.004;-20.11
1289.204;-20.57
1289.403;-21.1
1289.602;-21.72
1289.801;-22.41
1290.0;-23.22
1290.199;-24.12
1290.398;-25.14
1290.597;-26.33
1290.797;-27.6
1290.996;-29.14
1291.195;-29.99
1291.394;-30.51
1291.593;-30.18
1291.792;-29.17
1291.991;-27.83
1292.19;-26.43
1292.389;-24.93
1292.589;-23.94
1292.788;-22.9
1292.987;-21.96
1293.186;-21.14
1293.385;-20.39
1293.584;-19.72
1293.783;-19.14
1293.982;-18.63
1294.181;-18.19
1294.381;-17.79
1294.58;-17.44
1294.779;-17.15
1294.978;-16.9
1295.177;-16.72
1295.376;-16.55
1295.575;-16.44
1295.774;-16.36
1295.974;-16.32
1296.173;-16.34
1296.372;-16.39
1296.571;-16.48
1296.77;-16.61
1296.969;-16.79
1297.168;-17.03
1297.367;-17.3
1297.566;-17.63
1297.766;-18.01
1297.965;-18.46
1298.164;-18.98
1298.363;-19.56
1298.562;-20.23
1298.761;-20.98
1298.96;-21.85
1299.159;-22.83
1299.358;-23.94
1299.558;-25.17
1299.757;-26.52
1299.956;-27.91
1300.155;-29.3
1300.354;-29.66
1300.553;-29.27
1300.752;-28.2
1300.951;-26.82
1301.15;-25.18
1301.35;-24.11
1301.549;-22.95
1301.748;-21.92
1301.947;-20.99
1302.146;-20.19
1302.345;-19.47
1302.544;-18.84
1302.743;-18.3
1302.943;-17.8
1303.142;-17.39
1303.341;-17.02
1303.54;-16.71
1303.739;-16.46
1303.938;-16.24
1304.137;-16.06
1304.336;-15.96
1304.535;-15.89
1304.735;-15.84
1304.934;-15.84
1305.133;-15.91
1305.332;-15.98
1305.531;-16.13
1305.73;-16.28
1305.929;-16.5
1306.128;-16.79
1306.327;-17.09
1306.527;-17.48
1306.726;-17.9
1306.925;-18.52
1307.124;-18.99
1307.323;-19.63
1307.522;-20.37
1307.721;-21.2
1307.92;-22.16
1308.12;-23.23
1308.319;-24.44
1308.518;-25.79
1308.717;-27.24
1308.916;-28.97
1309.115;-29.73
1309.314;-29.97
1309.513;-29.28
1309.712;-28.03
1309.912;-26.62
1310.111;-25.05
1310.31;-24.05
1310.509;-22.98
1310.708;-22.01
1310.907;-21.16
1311.106;-20.43
1311.305;-19.8
1311.504;-19.25
1311.704;-18.78
1311.903;-18.36
1312.102;-18.01
1312.301;-17.72
1312.5;-17.48
1312.699;-17.31
1312.898;-17.16
1313.097;-17.08
1313.297;-17.03
1313.496;-17.03
1313.695;-17.09
1313.894;-17.16
1314.093;-17.31
1314.292;-17.48
1314.491;-17.71
1314.69;-17.98
1314.889;-18.29
1315.089;-18.68
1315.288;-19.1
1315.487;-19.6
1315.686;-20.14
1315.885;-20.76
1316.084;-21.47
1316.283;-22.24
1316.482;-23.13
1316.681;-24.08
1316.881;-25.14
1317.08;-26.31
1317.279;-27.52
1317.478;-28.94
1317.677;-29.65
1317.876;-30.13
1318.075;-29.97
1318.274;-29.28
1318.474;-28.29
1318.673;-27.22
1318.872;-26.0
1319.071;-25.21
1319.27;-24.36
1319.469;-23.58
1319.668;-22.91
1319.867;-22.31
1320.066;-21.79
1320.266;-21.35
1320.465;-20.96
1320.664;-20.65
1320.863;-20.36
1321.062;-20.15
1321.261;-19.98
1321.46;-19.85
1321.659;-19.78
1321.858;-19.74
1322.058;-19.74
1322.257;-19.78
1322.456;-19.86
1322.655;-20.0
1322.854;-20.15
1323.053;-20.36
1323.252;-20.6
1323.451;-20.88
1323.65;-21.21
1323.85;-21.57
1324.049;-21.98
1324.248;-22.42
1324.447;-22.9
1324.646;-23.45
1324.845;-24.02
1325.044;-24.65
1325.243;-25.31
1325.443;-26.0
1325.642;-26.73
1325.841;-27.45
1326.04;-28.17
1326.239;-28.96
1326.438;-29.41
1326.637;-29.81
1326.836;-30.05
1327.035;-30.09
1327.235;-29.96
1327.434;-29.7
1327.633;-29.33
1327.832;-28.93
1328.031;-28.49
1328.23;-28.08
1328.429;-27.68
1328.628;-27.32
1328.827;-27.01
1329.027;-26.72
1329.226;-26.48
1329.425;-26.25
1329.624;-26.13
1329.823;-26.02
1330.022;-25.94
1330.221;-25.91
1330.42;-25.91
1330.62;-25.96
1330.819;-26.03
1331.018;-26.14
1331.217;-26.3
1331.416;-26.47
1331.615;-26.7
1331.814;-26.94
1332.013;-27.23
1332.212;-27.53
1332.412;-27.88
1332.611;-28.26
1332.81;-28.73
1333.009;-29.08
1333.208;-29.51
1333.407;-29.97
1333.606;-30.41
1333.805;-30.86
1334.004;-31.3
1334.204;-31.7
1334.403;-32.07
1334.602;-32.37
1334.801;-32.63
1335.0;-32.8
1335.199;-32.9
1335.398;-32.94
1335.597;-32.91
1335.797;-32.86
1335.996;-32.75
1336.195;-32.62
1336.394;-32.48
1336.593;-32.33
1336.792;-32.2
1336.991;-32.07
1337.19;-31.97
1337.389;-31.88
1337.589;-31.83
1337.788;-31.81
1337.987;-31.8
1338.186;-31.85
1338.385;-31.9
1338.584;-32.0
1338.783;-32.13
1338.982;-32.29
1339.181;-32.51
1339.381;-32.75
1339.58;-33.04
1339.779;-33.35
1339.978;-33.72
1340.177;-34.14
1340.376;-34.6
1340.575;-35.12
1340.774;-35.68
1340.974;-36.3
1341.173;-36.99
1341.372;-37.74
1341.571;-38.77
1341.77;-39.52
1341.969;-40.57
1342.168;-41.73
1342.367;-43.06
1342.566;-44.52
1342.766;-46.17
1342.965;-47.94
1343.164;-50.02
1343.363;-50.81
1343.562;-50.81
1343.761;-49.87
1343.96;-48.47
1344.159;-47.07
1344.358;-45.61
1344.558;-44.74
1344.757;-43.81
1344.956;-43.01
1345.155;-42.35
1345.354;-41.77
1345.553;-41.31
1345.752;-40.91
1345.951;-40.59
1346.15;-40.34
1346.35;-40.14
1346.549;-40.03
1346.748;-39.93
1346.947;-39.88
1347.146;-39.88
1347.345;-39.91
1347.544;-40.05
1347.743;-40.22
1347.943;-40.43
1348.142;-40.64
1348.341;-40.91
1348.54;-41.18
1348.739;-41.5
1348.938;-41.88
1349.137;-42.29
1349.336;-42.73
1349.535;-43.25
1349.735;-43.8
1349.934;-44.45
1350.133;-45.15
1350.332;-45.96
1350.531;-46.84
1350.73;-47.79
1350.929;-49.03
1351.128;-49.92
1351.327;-51.12
1351.527;-52.45
1351.726;-53.88
1351.925;-55.26
1352.124;-56.35
1352.323;-56.88
1352.522;-56.75
1352.721;-55.98
1352.92;-54.96
1353.12;-54.04
1353.319;-53.0
1353.518;-52.11
1353.717;-51.35
1353.916;-50.63
1354.115;-50.06
1354.314;-49.63
1354.513;-49.25
1354.712;-49.08
1354.912;-48.91
1355.111;-48.72
1355.31;-48.5
1355.509;-48.25
1355.708;-48.28
1355.907;-48.4
1356.106;-48.43
1356.305;-48.43
1356.504;-48.53
1356.704;-48.44
1356.903;-48.63
1357.102;-49.07
1357.301;-49.45
1357.5;-49.85
1357.699;-50.26
1357.898;-50.64
1358.097;-51.02
1358.297;-51.6
1358.496;-52.3
1358.695;-52.97
1358.894;-53.78
1359.093;-54.67
1359.292;-55.49
1359.491;-56.67
1359.69;-57.96
1359.889;-59.76
1360.089;-60.93
1360.288;-62.34
1360.487;-63.47
1360.686;-64.34
1360.885;-64.65
1361.084;-64.14
1361.283;-62.92
1361.482;-61.61
1361.681;-60.72
1361.881;-59.62
1362.08;-58.79
1362.279;-58.28
1362.478;-57.76
1362.677;-57.07
1362.876;-56.13
1363.075;-55.68
1363.274;-55.03
1363.474;-54.74
1363.673;-54.48
1363.872;-54.34
1364.071;-54.31
1364.27;-54.33
1364.469;-54.48
1364.668;-54.9
1364.867;-55.12
1365.066;-55.09
1365.266;-55.33
1365.465;-55.35
1365.664;-55.56
1365.863;-55.82
1366.062;-56.07
1366.261;-56.36
1366.46;-56.75
1366.659;-57.31
1366.858;-57.99
1367.058;-58.85
1367.257;-59.44
1367.456;-60.36
1367.655;-61.28
1367.854;-62.38
1368.053;-63.54
1368.252;-64.64
1368.451;-65.94
1368.65;-67.04
1368.85;-68.25
1369.049;-68.89
1369.248;-68.89
1369.447;-68.15
1369.646;-67.37
1369.845;-66.76
1370.044;-65.78
1370.243;-64.74
1370.443;-63.85
1370.642;-63.02
1370.841;-62.66
1371.04;-62.21
1371.239;-61.7
1371.438;-61.13
1371.637;-60.63
1371.836;-60.21
1372.035;-60.05
1372.235;-59.94
1372.434;-59.76
1372.633;-59.59
1372.832;-59.48
1373.031;-59.38
1373.23;-59.41
1373.429;-59.51
1373.628;-59.58
1373.827;-59.69
1374.027;-59.84
1374.226;-60.03
1374.425;-60.27
1374.624;-60.54
1374.823;-60.91
1375.022;-61.3
1375.221;-61.64
1375.42;-61.99
1375.62;-62.36
1375.819;-62.74
1376.018;-63.26
1376.217;-63.73
1376.416;-64.18
1376.615;-64.66
1376.814;-65.14
1377.013;-65.72
1377.212;-66.15
1377.412;-66.36
1377.611;-66.56
1377.81;-66.58
1378.009;-66.58
1378.208;-66.54
1378.407;-66.47
1378.606;-66.48
1378.805;-66.43
1379.004;-66.23
1379.204;-65.95
1379.403;-65.61
1379.602;-65.28
1379.801;-64.99
1380.0;-64.85
1380.199;-64.74
1380.398;-64.73
1380.597;-65.1
1380.797;-65.39
1380.996;-65.38
1381.195;-65.26
1381.394;-64.92
1381.593;-64.63
1381.792;-64.64
1381.991;-64.73
1382.19;-64.89
1382.389;-65.28
1382.589;-65.86
1382.788;-66.54
1382.987;-67.0
1383.186;-67.14
1383.385;-66.99
1383.584;-67.13
1383.783;-67.54
1383.982;-68.05
1384.181;-68.6
1384.381;-69.0
1384.58;-69.54
1384.779;-70.01
1384.978;-70.61
1385.177;-71.36
1385.376;-71.84
1385.575;-72.43
1385.774;-72.76
1385.974;-73.2
1386.173;-73.11
1386.372;-73.45
1386.571;-72.79
1386.77;-72.37
1386.969;-72.64
1387.168;-71.95
1387.367;-71.56
1387.566;-71.09
1387.766;-70.92
1387.965;-70.74
1388.164;-70.45
1388.363;-70.45
1388.562;-70.0
1388.761;-69.36
1388.96;-69.27
1389.159;-68.9
1389.358;-68.76
1389.558;-68.54
1389.757;-68.67
1389.956;-68.68
1390.155;-68.74
1390.354;-68.7
1390.553;-68.74
1390.752;-68.78
1390.951;-69.02
1391.15;-69.02
1391.35;-69.37
1391.549;-69.55
1391.748;-69.69
1391.947;-70.08
1392.146;-70.65
1392.345;-71.1
1392.544;-71.79
1392.743;-72.33
1392.943;-72.45
1393.142;-73.34
1393.341;-73.38
1393.54;-73.46
1393.739;-73.94
1393.938;-74.37
1394.137;-74.76
1394.336;-75.9
1394.535;-75.52
1394.735;-76.13
1394.934;-75.98
1395.133;-76.59
1395.332;-76.37
1395.531;-75.73
1395.73;-75.6
1395.929;-75.38
1396.128;-74.65
1396.327;-74.83
1396.527;-74.48
1396.726;-74.39
1396.925;-73.69
1397.124;-73.39
1397.323;-72.6
1397.522;-72.83
1397.721;-72.51
1397.92;-72.55
1398.12;-72.34
1398.319;-72.2
1398.518;-71.96
1398.717;-72.1
1398.916;-72.02
1399.115;-72.12
1399.314;-72.24
1399.513;-72.74
1399.712;-72.68
1399.912;-72.94
1400.111;-73.35
1400.31;-73.64
1400.509;-73.7
1400.708;-74.6
1400.907;-74.49
1401.106;-74.92
1401.305;-74.94
1401.504;-74.83
1401.704;-75.74
1401.903;-75.71
1402.102;-76.45
1402.301;-76.19
1402.5;-75.84
1402.699;-76.23
1402.898;-77.1
1403.097;-78.3
1403.297;-77.19
1403.496;-77.4
1403.695;-77.88
1403.894;-77.08
1404.093;-77.14
1404.292;-76.71
1404.491;-77.4
1404.69;-76.74
1404.889;-76.81
1405.089;-76.46
1405.288;-75.93
1405.487;-76.11
1405.686;-76.78
1405.885;-75.53
1406.084;-76.33
1406.283;-76.23
1406.482;-76.35
1406.681;-75.94
1406.881;-75.63
1407.08;-76.49
1407.279;-76.2
1407.478;-76.41
1407.677;-76.79
1407.876;-76.36
1408.075;-76.77
1408.274;-76.72
1408.474;-76.51
1408.673;-76.61
1408.872;-77.54
1409.071;-77.58
1409.27;-77.58
1409.469;-78.34
1409.668;-79.16
1409.867;-78.95
1410.066;-78.55
1410.266;-79.25
1410.465;-79.94
1410.664;-79.25
1410.863;-79.73
1411.062;-78.6
1411.261;-79.76
1411.46;-79.45
1411.659;-78.18
1411.858;-79.94
1412.058;-79.52
1412.257;-79.32
1412.456;-78.95
1412.655;-79.22
1412.854;-79.32
1413.053;-78.83
1413.252;-79.01
1413.451;-79.45
1413.65;-78.78
1413.85;-79.53
1414.049;-79.2
1414.248;-79.88
1414.447;-80.11
1414.646;-80.64
1414.845;-79.26
1415.044;-77.97
1415.243;-78.9
1415.443;-79.53
1415.642;-79.05
1415.841;-78.64
1416.04;-78.84
1416.239;-80.23
1416.438;-78.56
1416.637;-79.53
1416.836;-78.84
1417.035;-78.56
1417.235;-79.2
1417.434;-78.93
1417.633;-81.11
1417.832;-78.9
1418.031;-79.3
1418.23;-78.81
1418.429;-79.49
1418.628;-79.88
1418.827;-79.23
1419.027;-78.42
1419.226;-79.23
1419.425;-78.35
1419.624;-79.26
1419.823;-80.43
1420.022;-80.96
1420.221;-78.48
1420.42;-78.29
1420.62;-79.43
1420.819;-78.56
1421.018;-78.45
1421.217;-79.02
1421.416;-78.29
1421.615;-78.88
1421.814;-78.97
1422.013;-78.3
1422.212;-78.49
1422.412;-79.15
1422.611;-78.57
1422.81;-78.91
1423.009;-78.73
1423.208;-80.79
1423.407;-78.41
1423.606;-78.3
1423.805;-78.85
1424.004;-79.5
1424.204;-78.36
1424.403;-78.76
1424.602;-78.43
1424.801;-78.79
1425.0;-78.97
