Wavelength (nm);Intensity (dBm)
1131.0;1131.0
1200.0;-60.54
1200.199;-60.54
1200.398;-60.54
1200.597;-60.54
1200.797;-60.5
1200.996;-60.45
1201.195;-60.44
1201.394;-60.47
1201.593;-60.44
1201.792;-60.37
1201.991;-60.32
1202.19;-60.36
1202.389;-60.34
1202.589;-60.26
1202.788;-60.2
1202.987;-60.2
1203.186;-60.21
1203.385;-60.14
1203.584;-60.09
1203.783;-60.12
1203.982;-60.16
1204.181;-60.14
1204.381;-60.12
1204.58;-60.19
1204.779;-60.21
1204.978;-60.23
1205.177;-60.23
1205.376;-60.23
1205.575;-60.28
1205.774;-60.31
1205.974;-60.26
1206.173;-60.23
1206.372;-60.22
1206.571;-60.22
1206.77;-60.17
1206.969;-60.07
1207.168;-60.04
1207.367;-60.0
1207.566;-59.91
1207.766;-59.78
1207.965;-59.71
1208.164;-59.7
1208.363;-59.6
1208.562;-59.52
1208.761;-59.42
1208.96;-59.35
1209.159;-59.28
1209.358;-59.17
1209.558;-59.08
1209.757;-59.01
1209.956;-58.96
1210.155;-58.86
1210.354;-58.72
1210.553;-58.67
1210.752;-58.62
1210.951;-58.56
1211.15;-58.49
1211.35;-58.43
1211.549;-58.45
1211.748;-58.43
1211.947;-58.38
1212.146;-58.37
1212.345;-58.41
1212.544;-58.46
1212.743;-58.47
1212.943;-58.48
1213.142;-58.54
1213.341;-58.6
1213.54;-58.63
1213.739;-58.65
1213.938;-58.67
1214.137;-58.73
1214.336;-58.72
1214.535;-58.71
1214.735;-58.7
1214.934;-58.71
1215.133;-58.69
1215.332;-58.61
1215.531;-58.56
1215.73;-58.55
1215.929;-58.47
1216.128;-58.36
1216.327;-58.27
1216.527;-58.22
1216.726;-58.12
1216.925;-57.98
1217.124;-57.86
1217.323;-57.75
1217.522;-57.66
1217.721;-57.51
1217.92;-57.36
1218.12;-57.26
1218.319;-57.15
1218.518;-57.03
1218.717;-56.89
1218.916;-56.79
1219.115;-56.74
1219.314;-56.63
1219.513;-56.54
1219.712;-56.49
1219.912;-56.46
1220.111;-56.42
1220.31;-56.36
1220.509;-56.36
1220.708;-56.37
1220.907;-56.36
1221.106;-56.36
1221.305;-56.36
1221.504;-56.39
1221.704;-56.41
1221.903;-56.4
1222.102;-56.43
1222.301;-56.46
1222.5;-56.47
1222.699;-56.48
1222.898;-56.49
1223.097;-56.51
1223.297;-56.5
1223.496;-56.48
1223.695;-56.46
1223.894;-56.45
1224.093;-56.44
1224.292;-56.37
1224.491;-56.3
1224.69;-56.25
1224.889;-56.16
1225.089;-56.06
1225.288;-55.93
1225.487;-55.79
1225.686;-55.67
1225.885;-55.51
1226.084;-55.36
1226.283;-55.22
1226.482;-55.07
1226.681;-54.89
1226.881;-54.73
1227.08;-54.59
1227.279;-54.46
1227.478;-54.31
1227.677;-54.17
1227.876;-54.07
1228.075;-53.97
1228.274;-53.86
1228.474;-53.78
1228.673;-53.71
1228.872;-53.64
1229.071;-53.58
1229.27;-53.53
1229.469;-53.51
1229.668;-53.48
1229.867;-53.45
1230.066;-53.46
1230.266;-53.46
1230.465;-53.46
1230.664;-53.48
1230.863;-53.53
1231.062;-53.59
1231.261;-53.63
1231.46;-53.7
1231.659;-53.76
1231.858;-53.82
1232.058;-53.88
1232.257;-53.91
1232.456;-53.97
1232.655;-53.98
1232.854;-53.98
1233.053;-53.98
1233.252;-53.94
1233.451;-53.89
1233.65;-53.8
1233.85;-53.68
1234.049;-53.59
1234.248;-53.45
1234.447;-53.3
1234.646;-53.14
1234.845;-52.99
1235.044;-52.83
1235.243;-52.65
1235.443;-52.5
1235.642;-52.34
1235.841;-52.17
1236.04;-52.03
1236.239;-51.89
1236.438;-51.76
1236.637;-51.63
1236.836;-51.52
1237.035;-51.43
1237.235;-51.32
1237.434;-51.24
1237.633;-51.16
1237.832;-51.11
1238.031;-51.05
1238.23;-50.99
1238.429;-50.95
1238.628;-50.91
1238.827;-50.86
1239.027;-50.83
1239.226;-50.78
1239.425;-50.74
1239.624;-50.67
1239.823;-50.6
1240.022;-50.53
1240.221;-50.43
1240.42;-50.33
1240.62;-50.21
1240.819;-50.09
1241.018;-49.93
1241.217;-49.78
1241.416;-49.64
1241.615;-49.47
1241.814;-49.31
1242.013;-49.16
1242.212;-49.02
1242.412;-48.89
1242.611;-48.75
1242.81;-48.65
1243.009;-48.54
1243.208;-48.46
1243.407;-48.41
1243.606;-48.35
1243.805;-48.32
1244.004;-48.3
1244.204;-48.31
1244.403;-48.34
1244.602;-48.35
1244.801;-48.4
1245.0;-48.44
1245.199;-48.49
1245.398;-48.55
1245.597;-48.57
1245.797;-48.6
1245.996;-48.57
1246.195;-48.53
1246.394;-48.47
1246.593;-48.33
1246.792;-48.15
1246.991;-47.91
1247.19;-47.62
1247.389;-47.3
1247.589;-46.9
1247.788;-46.51
1247.987;-46.06
1248.186;-45.54
1248.385;-45.16
1248.584;-44.71
1248.783;-44.28
1248.982;-43.84
1249.181;-43.44
1249.381;-43.05
1249.58;-42.67
1249.779;-42.35
1249.978;-42.03
1250.177;-41.75
1250.376;-41.5
1250.575;-41.27
1250.774;-41.09
1250.974;-40.93
1251.173;-40.8
1251.372;-40.7
1251.571;-40.64
1251.77;-40.62
1251.969;-40.61
1252.168;-40.66
1252.367;-40.72
1252.566;-40.84
1252.766;-41.0
1252.965;-41.2
1253.164;-41.45
1253.363;-41.73
1253.562;-42.08
1253.761;-42.48
1253.96;-42.91
1254.159;-43.41
1254.358;-43.91
1254.558;-44.45
1254.757;-44.96
1254.956;-45.37
1255.155;-45.67
1255.354;-45.7
1255.553;-45.5
1255.752;-45.04
1255.951;-44.37
1256.15;-43.59
1256.35;-42.72
1256.549;-41.85
1256.748;-41.0
1256.947;-40.18
1257.146;-39.41
1257.345;-38.66
1257.544;-38.0
1257.743;-37.36
1257.943;-36.76
1258.142;-36.23
1258.341;-35.62
1258.54;-35.27
1258.739;-34.83
1258.938;-34.45
1259.137;-34.1
1259.336;-33.78
1259.535;-33.52
1259.735;-33.26
1259.934;-33.05
1260.133;-32.88
1260.332;-32.73
1260.531;-32.65
1260.73;-32.56
1260.929;-32.52
1261.128;-32.51
1261.327;-32.54
1261.527;-32.62
1261.726;-32.7
1261.925;-32.83
1262.124;-32.98
1262.323;-33.16
1262.522;-33.38
1262.721;-33.6
1262.92;-33.84
1263.12;-34.07
1263.319;-34.31
1263.518;-34.55
1263.717;-34.74
1263.916;-34.88
1264.115;-34.95
1264.314;-34.94
1264.513;-34.85
1264.712;-34.64
1264.912;-34.36
1265.111;-33.99
1265.31;-33.57
1265.509;-33.13
1265.708;-32.64
1265.907;-32.16
1266.106;-31.67
1266.305;-31.21
1266.504;-30.78
1266.704;-30.36
1266.903;-29.99
1267.102;-29.63
1267.301;-29.31
1267.5;-29.05
1267.699;-28.8
1267.898;-28.61
1268.097;-28.44
1268.297;-28.31
1268.496;-28.23
1268.695;-28.16
1268.894;-28.15
1269.093;-28.16
1269.292;-28.21
1269.491;-28.33
1269.69;-28.47
1269.889;-28.67
1270.089;-28.91
1270.288;-29.21
1270.487;-29.58
1270.686;-30.01
1270.885;-30.52
1271.084;-31.09
1271.283;-31.76
1271.482;-32.51
1271.681;-33.34
1271.881;-34.26
1272.08;-35.16
1272.279;-35.98
1272.478;-36.54
1272.677;-36.68
1272.876;-36.31
1273.075;-35.5
1273.274;-34.47
1273.474;-33.33
1273.673;-32.22
1273.872;-31.18
1274.071;-30.2
1274.27;-29.33
1274.469;-28.5
1274.668;-27.76
1274.867;-27.1
1275.066;-26.49
1275.266;-25.85
1275.465;-25.44
1275.664;-25.02
1275.863;-24.61
1276.062;-24.26
1276.261;-23.95
1276.46;-23.69
1276.659;-23.47
1276.858;-23.28
1277.058;-23.15
1277.257;-23.06
1277.456;-23.0
1277.655;-23.01
1277.854;-23.02
1278.053;-23.1
1278.252;-23.22
1278.451;-23.38
1278.65;-23.6
1278.85;-23.84
1279.049;-24.16
1279.248;-24.52
1279.447;-24.93
1279.646;-25.43
1279.845;-25.98
1280.044;-26.61
1280.243;-27.3
1280.443;-28.08
1280.642;-29.12
1280.841;-29.85
1281.04;-30.74
1281.239;-31.51
1281.438;-32.01
1281.637;-32.05
1281.836;-31.61
1282.035;-30.8
1282.235;-29.77
1282.434;-28.68
1282.633;-27.61
1282.832;-26.59
1283.031;-25.5
1283.23;-24.8
1283.429;-24.04
1283.628;-23.33
1283.827;-22.7
1284.027;-22.12
1284.226;-21.61
1284.425;-21.16
1284.624;-20.74
1284.823;-20.4
1285.022;-20.07
1285.221;-19.8
1285.42;-19.57
1285.62;-19.38
1285.819;-19.25
1286.018;-19.13
1286.217;-19.06
1286.416;-19.02
1286.615;-19.03
1286.814;-19.09
1287.013;-19.16
1287.212;-19.29
1287.412;-19.45
1287.611;-19.65
1287.81;-19.91
1288.009;-20.18
1288.208;-20.51
1288.407;-20.86
1288.606;-21.26
1288.805;-21.7
1289.004;-22.15
1289.204;-22.62
1289.403;-23.07
1289.602;-23.49
1289.801;-23.86
1290.0;-24.11
1290.199;-24.25
1290.398;-24.22
1290.597;-24.05
1290.797;-23.73
1290.996;-23.29
1291.195;-22.79
1291.394;-22.23
1291.593;-21.65
1291.792;-21.09
1291.991;-20.55
1292.19;-20.05
1292.389;-19.57
1292.589;-19.12
1292.788;-18.71
1292.987;-18.34
1293.186;-18.03
1293.385;-17.73
1293.584;-17.48
1293.783;-17.26
1293.982;-17.08
1294.181;-16.95
1294.381;-16.84
1294.58;-16.78
1294.779;-16.73
1294.978;-16.73
1295.177;-16.75
1295.376;-16.81
1295.575;-16.91
1295.774;-17.02
1295.974;-17.17
1296.173;-17.35
1296.372;-17.56
1296.571;-17.8
1296.77;-18.06
1296.969;-18.35
1297.168;-18.64
1297.367;-18.95
1297.566;-19.25
1297.766;-19.55
1297.965;-19.85
1298.164;-20.08
1298.363;-20.28
1298.562;-20.41
1298.761;-20.47
1298.96;-20.46
1299.159;-20.36
1299.358;-20.19
1299.558;-19.95
1299.757;-19.67
1299.956;-19.37
1300.155;-19.02
1300.354;-18.7
1300.553;-18.33
1300.752;-18.0
1300.951;-17.7
1301.15;-17.41
1301.35;-17.15
1301.549;-16.9
1301.748;-16.69
1301.947;-16.5
1302.146;-16.35
1302.345;-16.24
1302.544;-16.15
1302.743;-16.1
1302.943;-16.07
1303.142;-16.1
1303.341;-16.14
1303.54;-16.23
1303.739;-16.37
1303.938;-16.52
1304.137;-16.74
1304.336;-16.97
1304.535;-17.27
1304.735;-17.61
1304.934;-17.98
1305.133;-18.52
1305.332;-18.93
1305.531;-19.49
1305.73;-20.09
1305.929;-20.77
1306.128;-21.52
1306.327;-22.31
1306.527;-23.19
1306.726;-24.05
1306.925;-24.9
1307.124;-25.64
1307.323;-26.14
1307.522;-26.32
1307.721;-26.09
1307.92;-25.56
1308.12;-24.82
1308.319;-23.99
1308.518;-23.18
1308.717;-22.36
1308.916;-21.61
1309.115;-20.93
1309.314;-20.3
1309.513;-19.77
1309.712;-19.27
1309.912;-18.85
1310.111;-18.47
1310.31;-18.16
1310.509;-17.9
1310.708;-17.66
1310.907;-17.5
1311.106;-17.37
1311.305;-17.29
1311.504;-17.26
1311.704;-17.26
1311.903;-17.32
1312.102;-17.41
1312.301;-17.57
1312.5;-17.76
1312.699;-18.0
1312.898;-18.3
1313.097;-18.64
1313.297;-19.07
1313.496;-19.53
1313.695;-20.08
1313.894;-20.69
1314.093;-21.39
1314.292;-22.2
1314.491;-23.1
1314.69;-24.13
1314.889;-25.3
1315.089;-26.65
1315.288;-28.15
1315.487;-30.09
1315.686;-31.24
1315.885;-32.07
1316.084;-31.85
1316.283;-30.69
1316.482;-29.21
1316.681;-27.72
1316.881;-26.37
1317.08;-25.01
1317.279;-24.16
1317.478;-23.29
1317.677;-22.51
1317.876;-21.84
1318.075;-21.24
1318.274;-20.74
1318.474;-20.31
1318.673;-19.94
1318.872;-19.65
1319.071;-19.39
1319.27;-19.19
1319.469;-19.04
1319.668;-18.94
1319.867;-18.89
1320.066;-18.86
1320.266;-18.9
1320.465;-18.96
1320.664;-19.09
1320.863;-19.25
1321.062;-19.44
1321.261;-19.7
1321.46;-19.98
1321.659;-20.32
1321.858;-20.72
1322.058;-21.16
1322.257;-21.68
1322.456;-22.24
1322.655;-22.88
1322.854;-23.59
1323.053;-24.39
1323.252;-25.32
1323.451;-26.33
1323.65;-27.5
1323.85;-29.1
1324.049;-30.35
1324.248;-32.06
1324.447;-33.95
1324.646;-35.78
1324.845;-36.92
1325.044;-36.68
1325.243;-35.31
1325.443;-33.65
1325.642;-32.07
1325.841;-30.7
1326.04;-29.55
1326.239;-28.55
1326.438;-27.72
1326.637;-26.99
1326.836;-26.39
1327.035;-25.8
1327.235;-25.46
1327.434;-25.12
1327.633;-24.82
1327.832;-24.62
1328.031;-24.44
1328.23;-24.33
1328.429;-24.26
1328.628;-24.24
1328.827;-24.29
1329.027;-24.35
1329.226;-24.48
1329.425;-24.63
1329.624;-24.83
1329.823;-25.09
1330.022;-25.37
1330.221;-25.72
1330.42;-26.1
1330.62;-26.55
1330.819;-27.05
1331.018;-27.6
1331.217;-28.24
1331.416;-29.08
1331.615;-29.73
1331.814;-30.59
1332.013;-31.57
1332.212;-32.66
1332.412;-33.9
1332.611;-35.31
1332.81;-36.87
1333.009;-39.01
1333.208;-40.44
1333.407;-41.92
1333.606;-42.47
1333.805;-41.83
1334.004;-40.47
1334.204;-38.96
1334.403;-37.58
1334.602;-36.16
1334.801;-35.33
1335.0;-34.46
1335.199;-33.72
1335.398;-33.08
1335.597;-32.55
1335.797;-32.1
1335.996;-31.73
1336.195;-31.44
1336.394;-31.18
1336.593;-30.99
1336.792;-30.84
1336.991;-30.75
1337.19;-30.71
1337.389;-30.7
1337.589;-30.75
1337.788;-30.82
1337.987;-30.94
1338.186;-31.09
1338.385;-31.27
1338.584;-31.5
1338.783;-31.74
1338.982;-32.04
1339.181;-32.36
1339.381;-32.71
1339.58;-33.1
1339.779;-33.5
1339.978;-33.95
1340.177;-34.41
1340.376;-34.9
1340.575;-35.41
1340.774;-35.91
1340.974;-36.42
1341.173;-36.9
1341.372;-37.38
1341.571;-37.82
1341.77;-38.21
1341.969;-38.63
1342.168;-38.84
1342.367;-39.03
1342.566;-39.15
1342.766;-39.23
1342.965;-39.22
1343.164;-39.19
1343.363;-39.11
1343.562;-39.02
1343.761;-38.93
1343.96;-38.84
1344.159;-38.77
1344.358;-38.69
1344.558;-38.65
1344.757;-38.64
1344.956;-38.63
1345.155;-38.68
1345.354;-38.73
1345.553;-38.83
1345.752;-38.96
1345.951;-39.12
1346.15;-39.34
1346.35;-39.57
1346.549;-39.86
1346.748;-40.17
1346.947;-40.51
1347.146;-40.92
1347.345;-41.32
1347.544;-41.84
1347.743;-42.4
1347.943;-43.0
1348.142;-43.64
1348.341;-44.32
1348.54;-45.04
1348.739;-45.79
1348.938;-46.62
1349.137;-47.5
1349.336;-48.61
1349.535;-49.36
1349.735;-50.25
1349.934;-51.08
1350.133;-51.75
1350.332;-52.21
1350.531;-52.32
1350.73;-52.1
1350.929;-51.63
1351.128;-51.0
1351.327;-50.38
1351.527;-49.76
1351.726;-49.24
1351.925;-48.7
1352.124;-48.2
1352.323;-47.79
1352.522;-47.46
1352.721;-47.12
1352.92;-46.83
1353.12;-46.71
1353.319;-46.5
1353.518;-46.34
1353.717;-46.3
1353.916;-46.2
1354.115;-46.19
1354.314;-46.27
1354.513;-46.37
1354.712;-46.62
1354.912;-46.88
1355.111;-47.1
1355.31;-47.27
1355.509;-47.39
1355.708;-47.72
1355.907;-48.15
1356.106;-48.6
1356.305;-48.88
1356.504;-49.26
1356.704;-49.46
1356.903;-49.92
1357.102;-50.6
1357.301;-51.23
1357.5;-51.86
1357.699;-52.45
1357.898;-52.99
1358.097;-53.43
1358.297;-54.0
1358.496;-54.56
1358.695;-54.95
1358.894;-55.27
1359.093;-55.43
1359.292;-55.4
1359.491;-55.54
1359.69;-55.56
1359.889;-55.32
1360.089;-54.91
1360.288;-54.51
1360.487;-54.06
1360.686;-53.77
1360.885;-53.68
1361.084;-53.57
1361.283;-53.33
1361.482;-53.09
1361.681;-53.04
1361.881;-52.88
1362.08;-52.86
1362.279;-53.02
1362.478;-53.14
1362.677;-53.12
1362.876;-52.9
1363.075;-52.8
1363.274;-52.52
1363.474;-52.61
1363.673;-52.73
1363.872;-52.93
1364.071;-53.24
1364.27;-53.56
1364.469;-54.01
1364.668;-54.69
1364.867;-55.21
1365.066;-55.49
1365.266;-55.95
1365.465;-56.17
1365.664;-56.59
1365.863;-57.04
1366.062;-57.43
1366.261;-57.81
1366.46;-58.25
1366.659;-58.88
1366.858;-59.35
1367.058;-59.77
1367.257;-60.13
1367.456;-60.5
1367.655;-60.71
1367.854;-60.93
1368.053;-60.9
1368.252;-60.67
1368.451;-60.72
1368.65;-60.53
1368.85;-60.23
1369.049;-59.83
1369.248;-59.46
1369.447;-59.04
1369.646;-58.82
1369.845;-58.84
1370.044;-58.77
1370.243;-58.62
1370.443;-58.43
1370.642;-58.25
1370.841;-58.37
1371.04;-58.5
1371.239;-58.56
1371.438;-58.47
1371.637;-58.38
1371.836;-58.3
1372.035;-58.48
1372.235;-58.69
1372.434;-58.85
1372.633;-58.99
1372.832;-59.08
1373.031;-59.23
1373.23;-59.46
1373.429;-59.75
1373.628;-60.0
1373.827;-60.26
1374.027;-60.53
1374.226;-60.78
1374.425;-61.11
1374.624;-61.41
1374.823;-61.76
1375.022;-62.06
1375.221;-62.27
1375.42;-62.45
1375.62;-62.6
1375.819;-62.72
1376.018;-62.87
1376.217;-63.02
1376.416;-63.09
1376.615;-63.08
1376.814;-63.17
1377.013;-63.28
1377.212;-63.34
1377.412;-63.28
1377.611;-63.24
1377.81;-63.04
1378.009;-63.0
1378.208;-62.94
1378.407;-63.01
1378.606;-63.18
1378.805;-63.39
1379.004;-63.5
1379.204;-63.52
1379.403;-63.51
1379.602;-63.49
1379.801;-63.55
1380.0;-63.79
1380.199;-64.03
1380.398;-64.34
1380.597;-64.99
1380.797;-65.67
1380.996;-66.05
1381.195;-66.3
1381.394;-66.45
1381.593;-66.37
1381.792;-66.77
1381.991;-67.23
1382.19;-67.66
1382.389;-68.37
1382.589;-69.21
1382.788;-70.2
1382.987;-70.82
1383.186;-71.11
1383.385;-71.19
1383.584;-71.11
1383.783;-71.35
1383.982;-71.7
1384.181;-71.57
1384.381;-71.53
1384.58;-71.09
1384.779;-70.82
1384.978;-70.74
1385.177;-70.73
1385.376;-70.38
1385.575;-69.77
1385.774;-69.61
1385.974;-69.16
1386.173;-68.87
1386.372;-68.55
1386.571;-68.49
1386.77;-68.2
1386.969;-68.09
1387.168;-67.85
1387.367;-67.66
1387.566;-67.68
1387.766;-67.87
1387.965;-68.11
1388.164;-68.36
1388.363;-68.49
1388.562;-68.54
1388.761;-68.46
1388.96;-68.5
1389.159;-68.5
1389.358;-68.79
1389.558;-68.99
1389.757;-69.38
1389.956;-69.68
1390.155;-70.19
1390.354;-70.72
1390.553;-70.86
1390.752;-71.21
1390.951;-71.96
1391.15;-72.5
1391.35;-73.0
1391.549;-73.55
1391.748;-73.94
1391.947;-74.85
1392.146;-75.6
1392.345;-76.39
1392.544;-77.05
1392.743;-76.93
1392.943;-76.7
1393.142;-76.7
1393.341;-76.14
1393.54;-76.04
1393.739;-75.24
1393.938;-74.43
1394.137;-74.2
1394.336;-73.83
1394.535;-73.72
1394.735;-72.92
1394.934;-73.0
1395.133;-72.99
1395.332;-72.67
1395.531;-72.41
1395.73;-72.3
1395.929;-72.09
1396.128;-71.87
1396.327;-71.92
1396.527;-72.04
1396.726;-72.13
1396.925;-72.19
1397.124;-71.76
1397.323;-71.81
1397.522;-71.63
1397.721;-71.84
1397.92;-72.27
1398.12;-72.34
1398.319;-72.35
1398.518;-72.63
1398.717;-72.78
1398.916;-73.48
1399.115;-73.29
1399.314;-73.98
1399.513;-74.18
1399.712;-74.54
1399.912;-74.92
1400.111;-75.26
1400.31;-75.39
1400.509;-76.15
1400.708;-76.2
1400.907;-76.62
1401.106;-76.38
1401.305;-76.41
1401.504;-76.5
1401.704;-77.08
1401.903;-76.65
1402.102;-76.31
1402.301;-76.33
1402.5;-76.31
1402.699;-75.37
1402.898;-76.36
1403.097;-75.51
1403.297;-75.68
1403.496;-75.5
1403.695;-75.39
1403.894;-75.45
1404.093;-75.6
1404.292;-75.75
1404.491;-75.51
1404.69;-76.41
1404.889;-77.21
1405.089;-76.6
1405.288;-76.48
1405.487;-75.99
1405.686;-75.84
1405.885;-76.08
1406.084;-77.06
1406.283;-76.5
1406.482;-76.41
1406.681;-76.34
1406.881;-77.45
1407.08;-78.23
1407.279;-77.85
1407.478;-79.13
1407.677;-78.83
1407.876;-80.5
1408.075;-78.13
1408.274;-78.74
1408.474;-78.13
1408.673;-79.35
1408.872;-79.45
1409.071;-79.01
1409.27;-79.25
1409.469;-81.1
1409.668;-79.91
1409.867;-80.34
1410.066;-79.48
1410.266;-78.41
1410.465;-80.42
1410.664;-82.14
1410.863;-79.91
1411.062;-80.1
1411.261;-78.71
1411.46;-79.45
1411.659;-78.11
1411.858;-78.44
1412.058;-78.77
1412.257;-79.01
1412.456;-78.55
1412.655;-79.25
1412.854;-80.1
1413.053;-79.1
1413.252;-78.66
1413.451;-78.86
1413.65;-79.74
1413.85;-78.45
1414.049;-78.7
1414.248;-79.3
1414.447;-78.96
1414.646;-79.92
1414.845;-79.63
1415.044;-79.26
1415.243;-80.56
1415.443;-80.15
1415.642;-79.74
1415.841;-79.17
1416.04;-79.14
1416.239;-79.99
1416.438;-78.78
1416.637;-78.96
1416.836;-79.84
1417.035;-80.07
1417.235;-79.02
1417.434;-78.53
1417.633;-79.53
1417.832;-79.26
1418.031;-78.53
1418.23;-78.9
1418.429;-78.99
1418.628;-79.67
1418.827;-78.17
1419.027;-80.03
1419.226;-81.15
1419.425;-79.99
1419.624;-79.2
1419.823;-80.35
1420.022;-79.43
1420.221;-78.93
1420.42;-79.02
1420.62;-78.32
1420.819;-79.26
1421.018;-79.26
1421.217;-79.53
1421.416;-78.61
1421.615;-78.88
1421.814;-79.03
1422.013;-78.51
1422.212;-79.18
1422.412;-78.06
1422.611;-79.93
1422.81;-78.2
1423.009;-78.85
1423.208;-79.64
1423.407;-78.85
1423.606;-78.41
1423.805;-78.68
1424.004;-79.44
1424.204;-79.37
1424.403;-79.47
1424.602;-78.57
1424.801;-79.64
1425.0;-78.51
