Wavelength (nm);Intensity (dBm)
1131.0;1131.0
1200.0;-60.51
1200.199;-60.42
1200.398;-60.39
1200.597;-60.36
1200.797;-60.35
1200.996;-60.27
1201.195;-60.23
1201.394;-60.23
1201.593;-60.21
1201.792;-60.16
1201.991;-60.07
1202.19;-60.09
1202.389;-60.06
1202.589;-60.02
1202.788;-59.94
1202.987;-59.93
1203.186;-59.92
1203.385;-59.86
1203.584;-59.8
1203.783;-59.77
1203.982;-59.8
1204.181;-59.81
1204.381;-59.75
1204.58;-59.72
1204.779;-59.79
1204.978;-59.81
1205.177;-59.79
1205.376;-59.78
1205.575;-59.82
1205.774;-59.9
1205.974;-59.88
1206.173;-59.83
1206.372;-59.86
1206.571;-59.91
1206.77;-59.92
1206.969;-59.8
1207.168;-59.76
1207.367;-59.79
1207.566;-59.76
1207.766;-59.65
1207.965;-59.59
1208.164;-59.56
1208.363;-59.54
1208.562;-59.42
1208.761;-59.34
1208.96;-59.29
1209.159;-59.26
1209.358;-59.17
1209.558;-59.06
1209.757;-59.02
1209.956;-58.99
1210.155;-58.92
1210.354;-58.79
1210.553;-58.73
1210.752;-58.72
1210.951;-58.67
1211.15;-58.54
1211.35;-58.47
1211.549;-58.49
1211.748;-58.48
1211.947;-58.37
1212.146;-58.33
1212.345;-58.38
1212.544;-58.39
1212.743;-58.36
1212.943;-58.33
1213.142;-58.38
1213.341;-58.41
1213.54;-58.38
1213.739;-58.38
1213.938;-58.37
1214.137;-58.4
1214.336;-58.38
1214.535;-58.32
1214.735;-58.33
1214.934;-58.33
1215.133;-58.27
1215.332;-58.18
1215.531;-58.14
1215.73;-58.14
1215.929;-58.04
1216.128;-57.93
1216.327;-57.85
1216.527;-57.82
1216.726;-57.73
1216.925;-57.58
1217.124;-57.46
1217.323;-57.4
1217.522;-57.3
1217.721;-57.14
1217.92;-56.98
1218.12;-56.91
1218.319;-56.81
1218.518;-56.65
1218.717;-56.53
1218.916;-56.44
1219.115;-56.38
1219.314;-56.25
1219.513;-56.16
1219.712;-56.14
1219.912;-56.1
1220.111;-56.03
1220.31;-55.98
1220.509;-55.99
1220.708;-56.01
1220.907;-55.99
1221.106;-55.95
1221.305;-55.98
1221.504;-56.02
1221.704;-56.03
1221.903;-56.01
1222.102;-56.04
1222.301;-56.09
1222.5;-56.09
1222.699;-56.1
1222.898;-56.13
1223.097;-56.17
1223.297;-56.19
1223.496;-56.17
1223.695;-56.2
1223.894;-56.24
1224.093;-56.24
1224.292;-56.21
1224.491;-56.19
1224.69;-56.21
1224.889;-56.14
1225.089;-56.05
1225.288;-55.98
1225.487;-55.9
1225.686;-55.75
1225.885;-55.61
1226.084;-55.47
1226.283;-55.34
1226.482;-55.16
1226.681;-54.96
1226.881;-54.8
1227.08;-54.66
1227.279;-54.47
1227.478;-54.28
1227.677;-54.15
1227.876;-54.02
1228.075;-53.88
1228.274;-53.72
1228.474;-53.61
1228.673;-53.54
1228.872;-53.42
1229.071;-53.31
1229.27;-53.25
1229.469;-53.19
1229.668;-53.12
1229.867;-53.03
1230.066;-53.02
1230.266;-52.99
1230.465;-52.94
1230.664;-52.93
1230.863;-52.96
1231.062;-52.99
1231.261;-52.99
1231.46;-53.02
1231.659;-53.09
1231.858;-53.14
1232.058;-53.18
1232.257;-53.21
1232.456;-53.28
1232.655;-53.32
1232.854;-53.3
1233.053;-53.32
1233.252;-53.32
1233.451;-53.27
1233.65;-53.21
1233.85;-53.12
1234.049;-53.07
1234.248;-52.93
1234.447;-52.79
1234.646;-52.68
1234.845;-52.55
1235.044;-52.4
1235.243;-52.23
1235.443;-52.09
1235.642;-51.96
1235.841;-51.79
1236.04;-51.65
1236.239;-51.52
1236.438;-51.39
1236.637;-51.25
1236.836;-51.12
1237.035;-51.05
1237.235;-50.93
1237.434;-50.81
1237.633;-50.74
1237.832;-50.68
1238.031;-50.61
1238.23;-50.53
1238.429;-50.49
1238.628;-50.47
1238.827;-50.42
1239.027;-50.39
1239.226;-50.37
1239.425;-50.34
1239.624;-50.3
1239.823;-50.24
1240.022;-50.22
1240.221;-50.14
1240.42;-50.03
1240.62;-49.94
1240.819;-49.82
1241.018;-49.67
1241.217;-49.48
1241.416;-49.33
1241.615;-49.14
1241.814;-48.93
1242.013;-48.75
1242.212;-48.56
1242.412;-48.38
1242.611;-48.18
1242.81;-48.02
1243.009;-47.88
1243.208;-47.73
1243.407;-47.61
1243.606;-47.5
1243.805;-47.42
1244.004;-47.35
1244.204;-47.28
1244.403;-47.27
1244.602;-47.24
1244.801;-47.24
1245.0;-47.28
1245.199;-47.33
1245.398;-47.4
1245.597;-47.46
1245.797;-47.56
1245.996;-47.68
1246.195;-47.79
1246.394;-47.93
1246.593;-48.05
1246.792;-48.17
1246.991;-48.26
1247.19;-48.32
1247.389;-48.34
1247.589;-48.26
1247.788;-48.13
1247.987;-47.93
1248.186;-47.65
1248.385;-47.3
1248.584;-46.89
1248.783;-46.45
1248.982;-45.98
1249.181;-45.41
1249.381;-45.03
1249.58;-44.53
1249.779;-44.07
1249.978;-43.61
1250.177;-43.19
1250.376;-42.81
1250.575;-42.41
1250.774;-42.06
1250.974;-41.74
1251.173;-41.43
1251.372;-41.16
1251.571;-40.92
1251.77;-40.7
1251.969;-40.49
1252.168;-40.32
1252.367;-40.19
1252.566;-40.08
1252.766;-40.01
1252.965;-39.96
1253.164;-39.94
1253.363;-39.96
1253.562;-40.01
1253.761;-40.09
1253.96;-40.2
1254.159;-40.35
1254.358;-40.52
1254.558;-40.72
1254.757;-40.94
1254.956;-41.14
1255.155;-41.36
1255.354;-41.55
1255.553;-41.69
1255.752;-41.79
1255.951;-41.78
1256.15;-41.71
1256.35;-41.52
1256.549;-41.25
1256.748;-40.88
1256.947;-40.43
1257.146;-39.94
1257.345;-39.4
1257.544;-38.85
1257.743;-38.3
1257.943;-37.73
1258.142;-37.19
1258.341;-36.66
1258.54;-36.16
1258.739;-35.61
1258.938;-35.23
1259.137;-34.84
1259.336;-34.46
1259.535;-34.12
1259.735;-33.8
1259.934;-33.52
1260.133;-33.29
1260.332;-33.08
1260.531;-32.92
1260.73;-32.77
1260.929;-32.67
1261.128;-32.61
1261.327;-32.57
1261.527;-32.59
1261.726;-32.63
1261.925;-32.7
1262.124;-32.83
1262.323;-32.97
1262.522;-33.18
1262.721;-33.41
1262.92;-33.68
1263.12;-34.0
1263.319;-34.36
1263.518;-34.79
1263.717;-35.22
1263.916;-35.7
1264.115;-36.21
1264.314;-36.72
1264.513;-37.21
1264.712;-37.61
1264.912;-37.88
1265.111;-37.99
1265.31;-37.87
1265.509;-37.57
1265.708;-37.04
1265.907;-36.42
1266.106;-35.72
1266.305;-35.01
1266.504;-34.32
1266.704;-33.63
1266.903;-32.99
1267.102;-32.41
1267.301;-31.86
1267.5;-31.39
1267.699;-30.93
1267.898;-30.53
1268.097;-30.18
1268.297;-29.86
1268.496;-29.6
1268.695;-29.35
1268.894;-29.15
1269.093;-28.98
1269.292;-28.85
1269.491;-28.78
1269.69;-28.72
1269.889;-28.7
1270.089;-28.73
1270.288;-28.8
1270.487;-28.93
1270.686;-29.08
1270.885;-29.29
1271.084;-29.54
1271.283;-29.85
1271.482;-30.21
1271.681;-30.6
1271.881;-31.05
1272.08;-31.54
1272.279;-32.06
1272.478;-32.59
1272.677;-33.1
1272.876;-33.57
1273.075;-33.93
1273.274;-34.15
1273.474;-34.2
1273.673;-34.03
1273.872;-33.68
1274.071;-33.16
1274.27;-32.56
1274.469;-31.9
1274.668;-31.22
1274.867;-30.56
1275.066;-29.9
1275.266;-29.3
1275.465;-28.73
1275.664;-28.2
1275.863;-27.74
1276.062;-27.3
1276.261;-26.93
1276.46;-26.58
1276.659;-26.28
1276.858;-26.01
1277.058;-25.84
1277.257;-25.69
1277.456;-25.57
1277.655;-25.49
1277.854;-25.46
1278.053;-25.46
1278.252;-25.51
1278.451;-25.58
1278.65;-25.69
1278.85;-25.85
1279.049;-26.04
1279.248;-26.27
1279.447;-26.5
1279.646;-26.78
1279.845;-27.07
1280.044;-27.37
1280.243;-27.66
1280.443;-27.9
1280.642;-28.1
1280.841;-28.25
1281.04;-28.25
1281.239;-28.14
1281.438;-27.89
1281.637;-27.54
1281.836;-27.07
1282.035;-26.55
1282.235;-25.87
1282.434;-25.37
1282.633;-24.78
1282.832;-24.18
1283.031;-23.63
1283.23;-23.07
1283.429;-22.56
1283.628;-22.07
1283.827;-21.63
1284.027;-21.23
1284.226;-20.85
1284.425;-20.51
1284.624;-20.2
1284.823;-19.93
1285.022;-19.7
1285.221;-19.49
1285.42;-19.34
1285.62;-19.2
1285.819;-19.1
1286.018;-19.05
1286.217;-19.03
1286.416;-19.05
1286.615;-19.11
1286.814;-19.21
1287.013;-19.36
1287.212;-19.55
1287.412;-19.8
1287.611;-20.08
1287.81;-20.43
1288.009;-20.85
1288.208;-21.32
1288.407;-21.88
1288.606;-22.5
1288.805;-23.24
1289.004;-24.08
1289.204;-25.03
1289.403;-26.13
1289.602;-27.34
1289.801;-28.99
1290.0;-30.09
1290.199;-31.2
1290.398;-31.66
1290.597;-31.16
1290.797;-29.94
1290.996;-28.43
1291.195;-26.95
1291.394;-25.39
1291.593;-24.37
1291.792;-23.32
1291.991;-22.37
1292.19;-21.53
1292.389;-20.78
1292.589;-20.11
1292.788;-19.54
1292.987;-19.02
1293.186;-18.59
1293.385;-18.19
1293.584;-17.84
1293.783;-17.56
1293.982;-17.32
1294.181;-17.14
1294.381;-16.99
1294.58;-16.88
1294.779;-16.82
1294.978;-16.8
1295.177;-16.84
1295.376;-16.89
1295.575;-17.0
1295.774;-17.15
1295.974;-17.34
1296.173;-17.61
1296.372;-17.91
1296.571;-18.27
1296.77;-18.69
1296.969;-19.17
1297.168;-19.74
1297.367;-20.38
1297.566;-21.12
1297.766;-21.95
1297.965;-22.93
1298.164;-24.05
1298.363;-25.33
1298.562;-26.8
1298.761;-28.79
1298.96;-30.09
1299.159;-31.24
1299.358;-31.31
1299.558;-30.2
1299.757;-28.56
1299.956;-26.88
1300.155;-25.09
1300.354;-24.0
1300.553;-22.82
1300.752;-21.8
1300.951;-20.92
1301.15;-20.13
1301.35;-19.45
1301.549;-18.84
1301.748;-18.31
1301.947;-17.85
1302.146;-17.45
1302.345;-17.11
1302.544;-16.81
1302.743;-16.56
1302.943;-16.37
1303.142;-16.22
1303.341;-16.1
1303.54;-16.05
1303.739;-16.04
1303.938;-16.04
1304.137;-16.11
1304.336;-16.22
1304.535;-16.37
1304.735;-16.57
1304.934;-16.79
1305.133;-17.08
1305.332;-17.41
1305.531;-17.8
1305.73;-18.33
1305.929;-18.74
1306.128;-19.32
1306.327;-19.94
1306.527;-20.65
1306.726;-21.42
1306.925;-22.27
1307.124;-23.2
1307.323;-24.14
1307.522;-25.1
1307.721;-25.91
1307.92;-26.47
1308.12;-26.67
1308.319;-26.4
1308.518;-25.82
1308.717;-24.98
1308.916;-24.07
1309.115;-23.18
1309.314;-22.31
1309.513;-21.55
1309.712;-20.82
1309.912;-20.18
1310.111;-19.61
1310.31;-19.1
1310.509;-18.68
1310.708;-18.27
1310.907;-17.95
1311.106;-17.67
1311.305;-17.44
1311.504;-17.28
1311.704;-17.13
1311.903;-17.06
1312.102;-17.01
1312.301;-17.02
1312.5;-17.08
1312.699;-17.17
1312.898;-17.33
1313.097;-17.51
1313.297;-17.75
1313.496;-18.05
1313.695;-18.38
1313.894;-18.78
1314.093;-19.24
1314.292;-19.78
1314.491;-20.36
1314.69;-21.04
1314.889;-21.81
1315.089;-22.67
1315.288;-23.66
1315.487;-24.78
1315.686;-26.04
1315.885;-27.44
1316.084;-29.3
1316.283;-30.49
1316.482;-31.59
1316.681;-31.86
1316.881;-31.13
1317.08;-29.86
1317.279;-28.41
1317.478;-27.06
1317.677;-25.65
1317.876;-24.78
1318.075;-23.86
1318.274;-23.05
1318.474;-22.37
1318.673;-21.76
1318.872;-21.25
1319.071;-20.8
1319.27;-20.41
1319.469;-20.1
1319.668;-19.84
1319.867;-19.63
1320.066;-19.46
1320.266;-19.35
1320.465;-19.28
1320.664;-19.25
1320.863;-19.28
1321.062;-19.33
1321.261;-19.43
1321.46;-19.57
1321.659;-19.75
1321.858;-19.99
1322.058;-20.24
1322.257;-20.56
1322.456;-20.91
1322.655;-21.32
1322.854;-21.78
1323.053;-22.28
1323.252;-22.86
1323.451;-23.46
1323.65;-24.15
1323.85;-24.9
1324.049;-25.7
1324.248;-26.6
1324.447;-27.52
1324.646;-28.72
1324.845;-29.51
1325.044;-30.46
1325.243;-31.26
1325.443;-31.8
1325.642;-31.99
1325.841;-31.79
1326.04;-31.33
1326.239;-30.67
1326.438;-29.96
1326.637;-29.25
1326.836;-28.58
1327.035;-27.99
1327.235;-27.44
1327.434;-26.97
1327.633;-26.55
1327.832;-26.15
1328.031;-25.91
1328.23;-25.68
1328.429;-25.5
1328.628;-25.37
1328.827;-25.29
1329.027;-25.24
1329.226;-25.24
1329.425;-25.28
1329.624;-25.35
1329.823;-25.49
1330.022;-25.63
1330.221;-25.83
1330.42;-26.05
1330.62;-26.32
1330.819;-26.63
1331.018;-26.96
1331.217;-27.34
1331.416;-27.74
1331.615;-28.17
1331.814;-28.74
1332.013;-29.13
1332.212;-29.64
1332.412;-30.14
1332.611;-30.67
1332.81;-31.16
1333.009;-31.63
1333.208;-32.06
1333.407;-32.41
1333.606;-32.7
1333.805;-32.88
1334.004;-32.98
1334.204;-33.0
1334.403;-32.93
1334.602;-32.82
1334.801;-32.66
1335.0;-32.49
1335.199;-32.29
1335.398;-32.11
1335.597;-31.95
1335.797;-31.8
1335.996;-31.7
1336.195;-31.59
1336.394;-31.53
1336.593;-31.49
1336.792;-31.49
1336.991;-31.54
1337.19;-31.61
1337.389;-31.73
1337.589;-31.88
1337.788;-32.07
1337.987;-32.31
1338.186;-32.58
1338.385;-32.9
1338.584;-33.26
1338.783;-33.67
1338.982;-34.13
1339.181;-34.65
1339.381;-35.25
1339.58;-35.88
1339.779;-36.61
1339.978;-37.4
1340.177;-38.29
1340.376;-39.53
1340.575;-40.46
1340.774;-41.71
1340.974;-43.13
1341.173;-44.73
1341.372;-46.47
1341.571;-48.22
1341.77;-49.9
1341.969;-50.02
1342.168;-49.21
1342.367;-47.81
1342.566;-46.1
1342.766;-44.99
1342.965;-43.85
1343.164;-42.83
1343.363;-42.0
1343.562;-41.26
1343.761;-40.65
1343.96;-40.16
1344.159;-39.73
1344.358;-39.39
1344.558;-39.1
1344.757;-38.88
1344.956;-38.71
1345.155;-38.58
1345.354;-38.52
1345.553;-38.49
1345.752;-38.52
1345.951;-38.59
1346.15;-38.71
1346.35;-38.88
1346.549;-39.08
1346.748;-39.32
1346.947;-39.59
1347.146;-39.91
1347.345;-40.27
1347.544;-40.71
1347.743;-41.23
1347.943;-41.76
1348.142;-42.33
1348.341;-42.97
1348.54;-43.62
1348.739;-44.36
1348.938;-45.17
1349.137;-46.09
1349.336;-47.07
1349.535;-48.2
1349.735;-49.73
1349.934;-50.87
1350.133;-52.44
1350.332;-54.18
1350.531;-55.93
1350.73;-57.3
1350.929;-57.68
1351.128;-56.96
1351.327;-55.68
1351.527;-54.33
1351.726;-53.11
1351.925;-51.98
1352.124;-51.0
1352.323;-50.2
1352.522;-49.57
1352.721;-48.94
1352.92;-48.44
1353.12;-48.13
1353.319;-47.74
1353.518;-47.48
1353.717;-47.28
1353.916;-47.09
1354.115;-46.97
1354.314;-46.99
1354.513;-47.03
1354.712;-47.23
1354.912;-47.45
1355.111;-47.61
1355.31;-47.78
1355.509;-47.85
1355.708;-48.2
1355.907;-48.64
1356.106;-49.03
1356.305;-49.41
1356.504;-49.87
1356.704;-50.13
1356.903;-50.69
1357.102;-51.51
1357.301;-52.35
1357.5;-53.23
1357.699;-54.18
1357.898;-55.09
1358.097;-56.06
1358.297;-57.28
1358.496;-58.9
1358.695;-59.88
1358.894;-61.04
1359.093;-61.86
1359.292;-61.9
1359.491;-61.74
1359.69;-61.04
1359.889;-59.95
1360.089;-58.77
1360.288;-57.72
1360.487;-56.77
1360.686;-55.89
1360.885;-55.6
1361.084;-55.16
1361.283;-54.65
1361.482;-54.2
1361.681;-53.98
1361.881;-53.7
1362.08;-53.53
1362.279;-53.65
1362.478;-53.64
1362.677;-53.55
1362.876;-53.26
1363.075;-53.11
1363.274;-52.82
1363.474;-52.87
1363.673;-52.99
1363.872;-53.2
1364.071;-53.52
1364.27;-53.87
1364.469;-54.35
1364.668;-55.11
1364.867;-55.68
1365.066;-56.07
1365.266;-56.69
1365.465;-57.03
1365.664;-57.65
1365.863;-58.34
1366.062;-59.16
1366.261;-59.8
1366.46;-60.67
1366.659;-61.69
1366.858;-62.84
1367.058;-63.89
1367.257;-64.8
1367.456;-65.66
1367.655;-65.99
1367.854;-66.09
1368.053;-65.54
1368.252;-64.69
1368.451;-64.21
1368.65;-63.41
1368.85;-62.59
1369.049;-61.68
1369.248;-60.96
1369.447;-60.23
1369.646;-59.77
1369.845;-59.6
1370.044;-59.32
1370.243;-59.03
1370.443;-58.68
1370.642;-58.41
1370.841;-58.48
1371.04;-58.53
1371.239;-58.56
1371.438;-58.42
1371.637;-58.33
1371.836;-58.25
1372.035;-58.43
1372.235;-58.69
1372.434;-58.86
1372.633;-59.07
1372.832;-59.28
1373.031;-59.52
1373.23;-59.88
1373.429;-60.32
1373.628;-60.76
1373.827;-61.25
1374.027;-61.82
1374.226;-62.39
1374.425;-63.11
1374.624;-63.81
1374.823;-64.68
1375.022;-65.61
1375.221;-66.55
1375.42;-67.56
1375.62;-68.53
1375.819;-69.29
1376.018;-70.27
1376.217;-70.78
1376.416;-71.18
1376.615;-71.29
1376.814;-71.0
1377.013;-70.41
1377.212;-69.93
1377.412;-68.9
1377.611;-68.24
1377.81;-67.43
1378.009;-66.9
1378.208;-66.36
1378.407;-66.05
1378.606;-65.77
1378.805;-65.65
1379.004;-65.35
1379.204;-65.12
1379.403;-64.86
1379.602;-64.57
1379.801;-64.46
1380.0;-64.46
1380.199;-64.51
1380.398;-64.65
1380.597;-65.2
1380.797;-65.72
1380.996;-65.99
1381.195;-66.12
1381.394;-66.04
1381.593;-65.99
1381.792;-66.24
1381.991;-66.63
1382.19;-67.08
1382.389;-67.72
1382.589;-68.62
1382.788;-69.55
1382.987;-70.57
1383.186;-70.93
1383.385;-71.48
1383.584;-71.9
1383.783;-72.95
1383.982;-73.94
1384.181;-74.59
1384.381;-74.75
1384.58;-75.55
1384.779;-76.2
1384.978;-76.07
1385.177;-75.97
1385.376;-75.56
1385.575;-74.48
1385.774;-73.43
1385.974;-73.25
1386.173;-72.53
1386.372;-71.88
1386.571;-71.33
1386.77;-70.9
1386.969;-70.34
1387.168;-69.92
1387.367;-69.67
1387.566;-69.25
1387.766;-69.36
1387.965;-69.38
1388.164;-69.42
1388.363;-69.22
1388.562;-69.24
1388.761;-69.06
1388.96;-68.87
1389.159;-68.85
1389.358;-68.85
1389.558;-69.05
1389.757;-69.18
1389.956;-69.44
1390.155;-69.7
1390.354;-69.96
1390.553;-70.3
1390.752;-70.49
1390.951;-70.83
1391.15;-71.31
1391.35;-71.68
1391.549;-72.12
1391.748;-72.51
1391.947;-73.06
1392.146;-73.87
1392.345;-74.46
1392.544;-75.25
1392.743;-76.04
1392.943;-76.49
1393.142;-77.15
1393.341;-76.47
1393.54;-76.7
1393.739;-76.54
1393.938;-77.25
1394.137;-76.7
1394.336;-77.07
1394.535;-75.98
1394.735;-75.49
1394.934;-75.71
1395.133;-75.68
1395.332;-75.18
1395.531;-75.38
1395.73;-74.96
1395.929;-74.83
1396.128;-74.73
1396.327;-74.96
1396.527;-74.4
1396.726;-74.37
1396.925;-74.73
1397.124;-74.24
1397.323;-73.92
1397.522;-74.12
1397.721;-73.92
1397.92;-73.98
1398.12;-73.94
1398.319;-74.06
1398.518;-74.22
1398.717;-73.95
1398.916;-74.11
1399.115;-74.12
1399.314;-74.67
1399.513;-74.87
1399.712;-75.02
1399.912;-75.24
1400.111;-75.67
1400.31;-74.96
1400.509;-75.65
1400.708;-75.62
1400.907;-75.45
1401.106;-75.46
1401.305;-75.29
1401.504;-75.05
1401.704;-75.78
1401.903;-75.61
1402.102;-75.39
1402.301;-74.49
1402.5;-74.99
1402.699;-74.68
1402.898;-74.91
1403.097;-74.69
1403.297;-75.04
1403.496;-74.71
1403.695;-75.14
1403.894;-74.98
1404.093;-75.04
1404.292;-75.38
1404.491;-74.74
1404.69;-75.32
1404.889;-75.91
1405.089;-75.93
1405.288;-75.91
1405.487;-76.02
1405.686;-75.87
1405.885;-76.22
1406.084;-76.08
1406.283;-76.6
1406.482;-76.8
1406.681;-77.09
1406.881;-76.51
1407.08;-78.34
1407.279;-77.96
1407.478;-78.04
1407.677;-78.18
1407.876;-79.19
1408.075;-78.26
1408.274;-78.58
1408.474;-78.01
1408.673;-79.22
1408.872;-79.32
1409.071;-78.01
1409.27;-79.8
1409.469;-79.35
1409.668;-78.89
1409.867;-79.32
1410.066;-78.8
1410.266;-78.95
1410.465;-78.95
1410.664;-79.07
1410.863;-78.86
1411.062;-78.92
1411.261;-79.48
1411.46;-79.1
1411.659;-78.39
1411.858;-79.25
1412.058;-79.87
1412.257;-80.1
1412.456;-78.86
1412.655;-79.52
1412.854;-78.49
1413.053;-78.66
1413.252;-79.52
1413.451;-78.47
1413.65;-78.4
1413.85;-79.08
1414.049;-78.5
1414.248;-79.11
1414.447;-78.53
1414.646;-79.14
1414.845;-81.15
1415.044;-79.02
1415.243;-78.35
1415.443;-79.77
1415.642;-80.69
1415.841;-79.2
1416.04;-78.96
1416.239;-79.74
1416.438;-79.02
1416.637;-81.41
1416.836;-79.92
1417.035;-81.57
1417.235;-78.53
1417.434;-80.91
1417.633;-79.7
1417.832;-79.23
1418.031;-79.08
1418.23;-78.72
1418.429;-80.27
1418.628;-79.2
1418.827;-79.08
1419.027;-79.08
1419.226;-79.99
1419.425;-81.15
1419.624;-79.02
1419.823;-78.5
1420.022;-78.35
1420.221;-80.96
1420.42;-78.99
1420.62;-80.35
1420.819;-79.36
1421.018;-80.03
1421.217;-79.88
1421.416;-81.15
1421.615;-79.27
1421.814;-78.91
1422.013;-79.68
1422.212;-80.12
1422.412;-80.4
1422.611;-79.34
1422.81;-79.03
1423.009;-78.25
1423.208;-78.79
1423.407;-79.4
1423.606;-80.61
1423.805;-79.37
1424.004;-79.85
1424.204;-79.34
1424.403;-78.28
1424.602;-79.64
1424.801;-79.34
1425.0;-78.94
