Wavelength (nm);Intensity (dBm)
1131.0;1131.0
1200.0;-60.56
1200.199;-60.48
1200.398;-60.43
1200.597;-60.46
1200.797;-60.4
1200.996;-60.35
1201.195;-60.29
1201.394;-60.3
1201.593;-60.3
1201.792;-60.23
1201.991;-60.18
1202.19;-60.2
1202.389;-60.2
1202.589;-60.15
1202.788;-60.08
1202.987;-60.1
1203.186;-60.09
1203.385;-60.04
1203.584;-60.0
1203.783;-59.95
1203.982;-60.0
1204.181;-60.0
1204.381;-59.93
1204.58;-59.92
1204.779;-59.97
1204.978;-59.99
1205.177;-59.93
1205.376;-59.94
1205.575;-60.0
1205.774;-60.04
1205.974;-60.02
1206.173;-59.97
1206.372;-59.97
1206.571;-60.02
1206.77;-60.0
1206.969;-59.91
1207.168;-59.87
1207.367;-59.9
1207.566;-59.87
1207.766;-59.75
1207.965;-59.67
1208.164;-59.68
1208.363;-59.63
1208.562;-59.52
1208.761;-59.43
1208.96;-59.4
1209.159;-59.39
1209.358;-59.28
1209.558;-59.19
1209.757;-59.15
1209.956;-59.12
1210.155;-59.04
1210.354;-58.94
1210.553;-58.9
1210.752;-58.87
1210.951;-58.81
1211.15;-58.73
1211.35;-58.66
1211.549;-58.7
1211.748;-58.67
1211.947;-58.57
1212.146;-58.54
1212.345;-58.59
1212.544;-58.62
1212.743;-58.54
1212.943;-58.53
1213.142;-58.58
1213.341;-58.61
1213.54;-58.59
1213.739;-58.55
1213.938;-58.57
1214.137;-58.62
1214.336;-58.58
1214.535;-58.52
1214.735;-58.51
1214.934;-58.53
1215.133;-58.46
1215.332;-58.35
1215.531;-58.34
1215.73;-58.31
1215.929;-58.22
1216.128;-58.11
1216.327;-58.02
1216.527;-58.0
1216.726;-57.9
1216.925;-57.75
1217.124;-57.63
1217.323;-57.57
1217.522;-57.48
1217.721;-57.31
1217.92;-57.16
1218.12;-57.11
1218.319;-57.01
1218.518;-56.87
1218.717;-56.73
1218.916;-56.67
1219.115;-56.61
1219.314;-56.49
1219.513;-56.41
1219.712;-56.39
1219.912;-56.37
1220.111;-56.3
1220.31;-56.24
1220.509;-56.28
1220.708;-56.29
1220.907;-56.28
1221.106;-56.26
1221.305;-56.28
1221.504;-56.33
1221.704;-56.34
1221.903;-56.33
1222.102;-56.37
1222.301;-56.42
1222.5;-56.43
1222.699;-56.41
1222.898;-56.45
1223.097;-56.5
1223.297;-56.5
1223.496;-56.49
1223.695;-56.5
1223.894;-56.54
1224.093;-56.53
1224.292;-56.49
1224.491;-56.49
1224.69;-56.48
1224.889;-56.4
1225.089;-56.33
1225.288;-56.24
1225.487;-56.17
1225.686;-56.05
1225.885;-55.89
1226.084;-55.72
1226.283;-55.63
1226.482;-55.46
1226.681;-55.25
1226.881;-55.11
1227.08;-54.96
1227.279;-54.79
1227.478;-54.61
1227.677;-54.48
1227.876;-54.38
1228.075;-54.22
1228.274;-54.07
1228.474;-53.98
1228.673;-53.9
1228.872;-53.81
1229.071;-53.69
1229.27;-53.64
1229.469;-53.6
1229.668;-53.53
1229.867;-53.46
1230.066;-53.43
1230.266;-53.42
1230.465;-53.38
1230.664;-53.35
1230.863;-53.39
1231.062;-53.43
1231.261;-53.44
1231.46;-53.48
1231.659;-53.54
1231.858;-53.59
1232.058;-53.63
1232.257;-53.66
1232.456;-53.75
1232.655;-53.77
1232.854;-53.77
1233.053;-53.77
1233.252;-53.78
1233.451;-53.74
1233.65;-53.66
1233.85;-53.6
1234.049;-53.52
1234.248;-53.38
1234.447;-53.23
1234.646;-53.11
1234.845;-52.98
1235.044;-52.79
1235.243;-52.62
1235.443;-52.48
1235.642;-52.32
1235.841;-52.15
1236.04;-51.98
1236.239;-51.84
1236.438;-51.69
1236.637;-51.53
1236.836;-51.4
1237.035;-51.28
1237.235;-51.16
1237.434;-51.03
1237.633;-50.94
1237.832;-50.89
1238.031;-50.79
1238.23;-50.72
1238.429;-50.68
1238.628;-50.65
1238.827;-50.61
1239.027;-50.58
1239.226;-50.57
1239.425;-50.55
1239.624;-50.51
1239.823;-50.49
1240.022;-50.46
1240.221;-50.41
1240.42;-50.32
1240.62;-50.24
1240.819;-50.16
1241.018;-50.01
1241.217;-49.85
1241.416;-49.69
1241.615;-49.51
1241.814;-49.33
1242.013;-49.12
1242.212;-48.94
1242.412;-48.75
1242.611;-48.53
1242.81;-48.36
1243.009;-48.18
1243.208;-48.02
1243.407;-47.85
1243.606;-47.71
1243.805;-47.61
1244.004;-47.48
1244.204;-47.39
1244.403;-47.33
1244.602;-47.26
1244.801;-47.23
1245.0;-47.21
1245.199;-47.23
1245.398;-47.25
1245.597;-47.28
1245.797;-47.36
1245.996;-47.42
1246.195;-47.52
1246.394;-47.62
1246.593;-47.72
1246.792;-47.84
1246.991;-47.93
1247.19;-48.02
1247.389;-48.06
1247.589;-48.04
1247.788;-48.0
1247.987;-47.86
1248.186;-47.67
1248.385;-47.4
1248.584;-47.06
1248.783;-46.7
1248.982;-46.27
1249.181;-45.74
1249.381;-45.35
1249.58;-44.88
1249.779;-44.39
1249.978;-43.91
1250.177;-43.47
1250.376;-43.02
1250.575;-42.59
1250.774;-42.18
1250.974;-41.81
1251.173;-41.45
1251.372;-41.11
1251.571;-40.82
1251.77;-40.52
1251.969;-40.26
1252.168;-40.03
1252.367;-39.81
1252.566;-39.65
1252.766;-39.49
1252.965;-39.37
1253.164;-39.28
1253.363;-39.2
1253.562;-39.18
1253.761;-39.16
1253.96;-39.18
1254.159;-39.21
1254.358;-39.26
1254.558;-39.36
1254.757;-39.43
1254.956;-39.53
1255.155;-39.64
1255.354;-39.73
1255.553;-39.83
1255.752;-39.87
1255.951;-39.88
1256.15;-39.85
1256.35;-39.76
1256.549;-39.64
1256.748;-39.41
1256.947;-39.15
1257.146;-38.82
1257.345;-38.44
1257.544;-38.05
1257.743;-37.61
1257.943;-37.16
1258.142;-36.71
1258.341;-36.25
1258.54;-35.74
1258.739;-35.37
1258.938;-34.97
1259.137;-34.58
1259.336;-34.21
1259.535;-33.86
1259.735;-33.54
1259.934;-33.25
1260.133;-32.99
1260.332;-32.76
1260.531;-32.56
1260.73;-32.38
1260.929;-32.25
1261.128;-32.14
1261.327;-32.07
1261.527;-32.03
1261.726;-32.02
1261.925;-32.06
1262.124;-32.12
1262.323;-32.24
1262.522;-32.39
1262.721;-32.58
1262.92;-32.83
1263.12;-33.11
1263.319;-33.47
1263.518;-33.87
1263.717;-34.34
1263.916;-34.89
1264.115;-35.5
1264.314;-36.2
1264.513;-36.98
1264.712;-37.85
1264.912;-38.94
1265.111;-39.69
1265.31;-40.48
1265.509;-41.0
1265.708;-41.07
1265.907;-40.61
1266.106;-39.77
1266.305;-38.72
1266.504;-37.61
1266.704;-36.54
1266.903;-35.34
1267.102;-34.58
1267.301;-33.72
1267.5;-32.95
1267.699;-32.24
1267.898;-31.6
1268.097;-31.04
1268.297;-30.51
1268.496;-30.05
1268.695;-29.63
1268.894;-29.25
1269.093;-28.93
1269.292;-28.64
1269.491;-28.41
1269.69;-28.21
1269.889;-28.05
1270.089;-27.94
1270.288;-27.86
1270.487;-27.84
1270.686;-27.84
1270.885;-27.88
1271.084;-27.99
1271.283;-28.11
1271.482;-28.29
1271.681;-28.5
1271.881;-28.76
1272.08;-29.07
1272.279;-29.4
1272.478;-29.78
1272.677;-30.16
1272.876;-30.58
1273.075;-31.02
1273.274;-31.43
1273.474;-31.83
1273.673;-32.14
1273.872;-32.37
1274.071;-32.48
1274.27;-32.43
1274.469;-32.25
1274.668;-31.91
1274.867;-31.47
1275.066;-30.96
1275.266;-30.4
1275.465;-29.84
1275.664;-29.26
1275.863;-28.72
1276.062;-28.19
1276.261;-27.71
1276.46;-27.27
1276.659;-26.85
1276.858;-26.5
1277.058;-26.17
1277.257;-25.85
1277.456;-25.65
1277.655;-25.46
1277.854;-25.31
1278.053;-25.18
1278.252;-25.11
1278.451;-25.06
1278.65;-25.05
1278.85;-25.1
1279.049;-25.17
1279.248;-25.29
1279.447;-25.44
1279.646;-25.64
1279.845;-25.88
1280.044;-26.15
1280.243;-26.48
1280.443;-26.82
1280.642;-27.19
1280.841;-27.58
1281.04;-27.95
1281.239;-28.38
1281.438;-28.58
1281.637;-28.75
1281.836;-28.76
1282.035;-28.61
1282.235;-28.29
1282.434;-27.82
1282.633;-27.26
1282.832;-26.61
1283.031;-25.82
1283.23;-25.24
1283.429;-24.57
1283.628;-23.91
1283.827;-23.28
1284.027;-22.71
1284.226;-22.15
1284.425;-21.65
1284.624;-21.17
1284.823;-20.74
1285.022;-20.36
1285.221;-20.0
1285.42;-19.7
1285.62;-19.41
1285.819;-19.17
1286.018;-18.97
1286.217;-18.8
1286.416;-18.68
1286.615;-18.59
1286.814;-18.54
1287.013;-18.53
1287.212;-18.55
1287.412;-18.63
1287.611;-18.73
1287.81;-18.88
1288.009;-19.08
1288.208;-19.33
1288.407;-19.64
1288.606;-19.98
1288.805;-20.4
1289.004;-20.88
1289.204;-21.43
1289.403;-22.07
1289.602;-22.79
1289.801;-23.62
1290.0;-24.55
1290.199;-25.6
1290.398;-26.78
1290.597;-28.05
1290.797;-29.56
1290.996;-30.26
1291.195;-30.57
1291.394;-30.04
1291.593;-28.91
1291.792;-27.56
1291.991;-26.19
1292.19;-24.72
1292.389;-23.77
1292.589;-22.76
1292.788;-21.84
1292.987;-21.04
1293.186;-20.33
1293.385;-19.69
1293.584;-19.13
1293.783;-18.63
1293.982;-18.2
1294.181;-17.82
1294.381;-17.49
1294.58;-17.22
1294.779;-16.98
1294.978;-16.8
1295.177;-16.65
1295.376;-16.55
1295.575;-16.49
1295.774;-16.47
1295.974;-16.5
1296.173;-16.56
1296.372;-16.67
1296.571;-16.82
1296.77;-17.02
1296.969;-17.28
1297.168;-17.57
1297.367;-17.92
1297.566;-18.32
1297.766;-18.8
1297.965;-19.35
1298.164;-19.96
1298.363;-20.68
1298.562;-21.47
1298.761;-22.39
1298.96;-23.44
1299.159;-24.61
1299.358;-25.95
1299.558;-27.35
1299.757;-29.04
1299.956;-29.78
1300.155;-29.96
1300.354;-29.22
1300.553;-27.89
1300.752;-26.43
1300.951;-24.79
1301.15;-23.75
1301.35;-22.61
1301.549;-21.63
1301.748;-20.75
1301.947;-19.96
1302.146;-19.3
1302.345;-18.68
1302.544;-18.16
1302.743;-17.69
1302.943;-17.29
1303.142;-16.96
1303.341;-16.66
1303.54;-16.43
1303.739;-16.22
1303.938;-16.05
1304.137;-15.97
1304.336;-15.9
1304.535;-15.9
1304.735;-15.91
1304.934;-15.98
1305.133;-16.07
1305.332;-16.22
1305.531;-16.43
1305.73;-16.65
1305.929;-16.95
1306.128;-17.28
1306.327;-17.67
1306.527;-18.13
1306.726;-18.76
1306.925;-19.26
1307.124;-19.93
1307.323;-20.71
1307.522;-21.57
1307.721;-22.54
1307.92;-23.63
1308.12;-24.85
1308.319;-26.17
1308.518;-27.5
1308.717;-28.88
1308.916;-29.26
1309.115;-29.07
1309.314;-28.18
1309.513;-26.96
1309.712;-25.46
1309.912;-24.44
1310.111;-23.37
1310.31;-22.38
1310.509;-21.52
1310.708;-20.73
1310.907;-20.06
1311.106;-19.47
1311.305;-18.95
1311.504;-18.53
1311.704;-18.14
1311.903;-17.82
1312.102;-17.55
1312.301;-17.34
1312.5;-17.2
1312.699;-17.08
1312.898;-17.02
1313.097;-16.99
1313.297;-17.01
1313.496;-17.09
1313.695;-17.19
1313.894;-17.36
1314.093;-17.56
1314.292;-17.81
1314.491;-18.12
1314.69;-18.46
1314.889;-18.88
1315.089;-19.33
1315.288;-19.86
1315.487;-20.47
1315.686;-21.13
1315.885;-21.9
1316.084;-22.75
1316.283;-23.7
1316.482;-24.75
1316.681;-25.92
1316.881;-27.19
1317.08;-28.78
1317.279;-29.72
1317.478;-30.52
1317.677;-30.67
1317.876;-30.09
1318.075;-29.08
1318.274;-27.91
1318.474;-26.74
1318.673;-25.52
1318.872;-24.73
1319.071;-23.91
1319.27;-23.16
1319.469;-22.51
1319.668;-21.94
1319.867;-21.45
1320.066;-21.04
1320.266;-20.67
1320.465;-20.38
1320.664;-20.13
1320.863;-19.94
1321.062;-19.79
1321.261;-19.68
1321.46;-19.64
1321.659;-19.61
1321.858;-19.64
1322.058;-19.71
1322.257;-19.81
1322.456;-19.97
1322.655;-20.15
1322.854;-20.38
1323.053;-20.65
1323.252;-20.96
1323.451;-21.32
1323.65;-21.71
1323.85;-22.17
1324.049;-22.65
1324.248;-23.2
1324.447;-23.78
1324.646;-24.42
1324.845;-25.13
1325.044;-25.86
1325.243;-26.65
1325.443;-27.46
1325.642;-28.29
1325.841;-29.27
1326.04;-29.85
1326.239;-30.46
1326.438;-30.84
1326.637;-31.0
1326.836;-30.9
1327.035;-30.61
1327.235;-30.18
1327.434;-29.67
1327.633;-29.16
1327.832;-28.63
1328.031;-28.15
1328.23;-27.7
1328.429;-27.3
1328.628;-26.97
1328.827;-26.67
1329.027;-26.44
1329.226;-26.2
1329.425;-26.09
1329.624;-25.98
1329.823;-25.91
1330.022;-25.9
1330.221;-25.91
1330.42;-25.97
1330.62;-26.05
1330.819;-26.18
1331.018;-26.36
1331.217;-26.56
1331.416;-26.81
1331.615;-27.07
1331.814;-27.38
1332.013;-27.72
1332.212;-28.09
1332.412;-28.58
1332.611;-28.94
1332.81;-29.41
1333.009;-29.87
1333.208;-30.36
1333.407;-30.84
1333.606;-31.33
1333.805;-31.79
1334.004;-32.22
1334.204;-32.6
1334.403;-32.9
1334.602;-33.14
1334.801;-33.28
1335.0;-33.35
1335.199;-33.35
1335.398;-33.27
1335.597;-33.16
1335.797;-33.0
1335.996;-32.84
1336.195;-32.67
1336.394;-32.49
1336.593;-32.35
1336.792;-32.19
1336.991;-32.08
1337.19;-32.0
1337.389;-31.94
1337.589;-31.92
1337.788;-31.92
1337.987;-31.98
1338.186;-32.04
1338.385;-32.15
1338.584;-32.31
1338.783;-32.49
1338.982;-32.72
1339.181;-32.98
1339.381;-33.29
1339.58;-33.64
1339.779;-34.03
1339.978;-34.49
1340.177;-34.98
1340.376;-35.55
1340.575;-36.16
1340.774;-36.83
1340.974;-37.58
1341.173;-38.4
1341.372;-39.52
1341.571;-40.36
1341.77;-41.51
1341.969;-42.79
1342.168;-44.23
1342.367;-45.82
1342.566;-47.48
1342.766;-49.41
1342.965;-50.11
1343.164;-50.12
1343.363;-49.21
1343.562;-47.91
1343.761;-46.57
1343.96;-45.17
1344.159;-44.3
1344.358;-43.4
1344.558;-42.63
1344.757;-41.96
1344.956;-41.41
1345.155;-40.92
1345.354;-40.52
1345.553;-40.19
1345.752;-39.94
1345.951;-39.75
1346.15;-39.6
1346.35;-39.52
1346.549;-39.48
1346.748;-39.47
1346.947;-39.52
1347.146;-39.6
1347.345;-39.72
1347.544;-39.92
1347.743;-40.18
1347.943;-40.45
1348.142;-40.75
1348.341;-41.1
1348.54;-41.44
1348.739;-41.85
1348.938;-42.3
1349.137;-42.81
1349.336;-43.36
1349.535;-43.97
1349.735;-44.65
1349.934;-45.4
1350.133;-46.25
1350.332;-47.23
1350.531;-48.29
1350.73;-49.73
1350.929;-50.79
1351.128;-52.19
1351.327;-53.75
1351.527;-55.46
1351.726;-57.11
1351.925;-58.29
1352.124;-58.46
1352.323;-57.7
1352.522;-56.49
1352.721;-54.86
1352.92;-53.85
1353.12;-52.89
1353.319;-51.93
1353.518;-51.12
1353.717;-50.47
1353.916;-49.86
1354.115;-49.38
1354.314;-49.07
1354.513;-48.78
1354.712;-48.71
1354.912;-48.62
1355.111;-48.5
1355.31;-48.38
1355.509;-48.19
1355.708;-48.32
1355.907;-48.5
1356.106;-48.62
1356.305;-48.69
1356.504;-48.86
1356.704;-48.87
1356.903;-49.13
1357.102;-49.67
1357.301;-50.14
1357.5;-50.63
1357.699;-51.16
1357.898;-51.64
1358.097;-52.17
1358.297;-52.87
1358.496;-53.73
1358.695;-54.57
1358.894;-55.55
1359.093;-56.69
1359.292;-57.73
1359.491;-59.55
1359.69;-60.73
1359.889;-62.35
1360.089;-63.73
1360.288;-64.42
1360.487;-64.28
1360.686;-63.51
1360.885;-62.63
1361.084;-61.53
1361.283;-60.29
1361.482;-59.17
1361.681;-58.49
1361.881;-57.68
1362.08;-57.07
1362.279;-56.81
1362.478;-56.45
1362.677;-55.91
1362.876;-55.35
1363.075;-54.9
1363.274;-54.35
1363.474;-54.16
1363.673;-54.02
1363.872;-53.98
1364.071;-54.07
1364.27;-54.18
1364.469;-54.44
1364.668;-54.95
1364.867;-55.27
1365.066;-55.36
1365.266;-55.7
1365.465;-55.81
1365.664;-56.12
1365.863;-56.52
1366.062;-56.89
1366.261;-57.29
1366.46;-57.82
1366.659;-58.7
1366.858;-59.41
1367.058;-60.27
1367.257;-61.23
1367.456;-62.36
1367.655;-63.46
1367.854;-64.82
1368.053;-66.19
1368.252;-67.32
1368.451;-68.47
1368.65;-68.92
1368.85;-68.81
1369.049;-67.97
1369.248;-66.95
1369.447;-65.8
1369.646;-64.8
1369.845;-64.16
1370.044;-63.38
1370.243;-62.64
1370.443;-61.93
1370.642;-61.3
1370.841;-61.1
1371.04;-60.83
1371.239;-60.5
1371.438;-60.09
1371.637;-59.74
1371.836;-59.41
1372.035;-59.36
1372.235;-59.36
1372.434;-59.32
1372.633;-59.26
1372.832;-59.23
1373.031;-59.23
1373.23;-59.34
1373.429;-59.54
1373.628;-59.71
1373.827;-59.89
1374.027;-60.17
1374.226;-60.43
1374.425;-60.79
1374.624;-61.16
1374.823;-61.61
1375.022;-62.12
1375.221;-62.53
1375.42;-62.98
1375.62;-63.41
1375.819;-63.89
1376.018;-64.45
1376.217;-65.02
1376.416;-65.51
1376.615;-65.87
1376.814;-66.25
1377.013;-66.67
1377.212;-66.9
1377.412;-67.0
1377.611;-66.98
1377.81;-66.73
1378.009;-66.47
1378.208;-66.18
1378.407;-66.04
1378.606;-65.97
1378.805;-65.82
1379.004;-65.56
1379.204;-65.31
1379.403;-64.95
1379.602;-64.66
1379.801;-64.39
1380.0;-64.32
1380.199;-64.3
1380.398;-64.3
1380.597;-64.72
1380.797;-65.03
1380.996;-65.11
1381.195;-65.07
1381.394;-64.88
1381.593;-64.66
1381.792;-64.73
1381.991;-64.87
1382.19;-65.12
1382.389;-65.62
1382.589;-66.35
1382.788;-67.08
1382.987;-67.69
1383.186;-67.91
1383.385;-67.98
1383.584;-68.12
1383.783;-68.69
1383.982;-69.39
1384.181;-70.05
1384.381;-70.49
1384.58;-71.09
1384.779;-71.66
1384.978;-72.58
1385.177;-73.25
1385.376;-73.62
1385.575;-73.84
1385.774;-73.87
1385.974;-73.73
1386.173;-73.62
1386.372;-72.96
1386.571;-72.65
1386.77;-72.28
1386.969;-71.52
1387.168;-71.1
1387.367;-70.46
1387.566;-70.34
1387.766;-70.1
1387.965;-70.01
1388.164;-69.81
1388.363;-69.71
1388.562;-69.33
1388.761;-68.96
1388.96;-68.84
1389.159;-68.52
1389.358;-68.44
1389.558;-68.43
1389.757;-68.38
1389.956;-68.48
1390.155;-68.56
1390.354;-68.72
1390.553;-68.87
1390.752;-69.01
1390.951;-69.28
1391.15;-69.55
1391.35;-69.68
1391.549;-70.1
1391.748;-70.71
1391.947;-70.82
1392.146;-71.43
1392.345;-71.92
1392.544;-72.91
1392.743;-73.57
1392.943;-74.06
1393.142;-74.4
1393.341;-74.52
1393.54;-75.03
1393.739;-75.86
1393.938;-76.47
1394.137;-77.13
1394.336;-76.57
1394.535;-78.19
1394.735;-77.83
1394.934;-77.52
1395.133;-77.22
1395.332;-76.13
1395.531;-76.16
1395.73;-75.71
1395.929;-75.2
1396.128;-74.48
1396.327;-74.65
1396.527;-74.34
1396.726;-74.08
1396.925;-73.94
1397.124;-73.18
1397.323;-72.99
1397.522;-72.65
1397.721;-72.3
1397.92;-72.37
1398.12;-72.37
1398.319;-72.14
1398.518;-72.44
1398.717;-72.45
1398.916;-72.52
1399.115;-72.64
1399.314;-72.52
1399.513;-73.01
1399.712;-73.31
1399.912;-73.56
1400.111;-74.0
1400.31;-73.4
1400.509;-73.49
1400.708;-74.69
1400.907;-75.06
1401.106;-75.26
1401.305;-75.49
1401.504;-75.06
1401.704;-75.5
1401.903;-76.23
1402.102;-76.41
1402.301;-75.85
1402.5;-75.91
1402.699;-76.3
1402.898;-76.58
1403.097;-76.74
1403.297;-76.5
1403.496;-76.14
1403.695;-76.78
1403.894;-76.14
1404.093;-75.94
1404.292;-76.15
1404.491;-76.92
1404.69;-76.08
1404.889;-76.96
1405.089;-75.96
1405.288;-76.03
1405.487;-76.4
1405.686;-75.96
1405.885;-76.02
1406.084;-75.99
1406.283;-76.63
1406.482;-75.74
1406.681;-76.1
1406.881;-76.21
1407.08;-76.03
1407.279;-76.47
1407.478;-76.86
1407.677;-76.51
1407.876;-77.49
1408.075;-77.64
1408.274;-77.49
1408.474;-77.49
1408.673;-78.06
1408.872;-77.41
1409.071;-78.21
1409.27;-78.77
1409.469;-78.52
1409.668;-78.52
1409.867;-78.47
1410.066;-79.52
1410.266;-78.28
1410.465;-79.1
1410.664;-78.44
1410.863;-79.13
1411.062;-79.73
1411.261;-80.77
1411.46;-79.25
1411.659;-79.52
1411.858;-79.52
1412.058;-78.95
1412.257;-78.83
1412.456;-78.95
1412.655;-78.89
1412.854;-79.52
1413.053;-78.49
1413.252;-79.13
1413.451;-79.19
1413.65;-79.43
1413.85;-78.48
1414.049;-80.35
1414.248;-79.23
1414.447;-79.67
1414.646;-79.53
1414.845;-78.78
1415.044;-78.81
1415.243;-80.19
1415.443;-79.39
1415.642;-79.99
1415.841;-78.78
1416.04;-78.1
1416.239;-78.27
1416.438;-79.53
1416.637;-79.53
1416.836;-79.39
1417.035;-79.08
1417.235;-78.24
1417.434;-78.75
1417.633;-79.39
1417.832;-79.14
1418.031;-79.49
1418.23;-78.84
1418.429;-79.53
1418.628;-79.53
1418.827;-78.9
1419.027;-79.7
1419.226;-78.84
1419.425;-78.5
1419.624;-79.81
1419.823;-79.14
1420.022;-78.67
1420.221;-79.14
1420.42;-78.84
1420.62;-78.42
1420.819;-80.03
1421.018;-78.93
1421.217;-79.7
1421.416;-80.15
1421.615;-79.82
1421.814;-79.27
1422.013;-79.21
1422.212;-79.18
1422.412;-79.27
1422.611;-78.01
1422.81;-78.54
1423.009;-79.82
1423.208;-79.54
1423.407;-79.96
1423.606;-78.43
1423.805;-77.78
1424.004;-78.88
1424.204;-78.6
1424.403;-80.79
1424.602;-79.03
1424.801;-79.21
1425.0;-78.13
