Wavelength (nm);Intensity (dBm)
1131.0;1131.0
1200.0;-57.55
1200.199;-57.45
1200.398;-57.41
1200.597;-57.44
1200.797;-57.42
1200.996;-57.39
1201.195;-57.33
1201.394;-57.32
1201.593;-57.3
1201.792;-57.24
1201.991;-57.2
1202.19;-57.14
1202.389;-57.08
1202.589;-57.08
1202.788;-57.01
1202.987;-56.91
1203.186;-56.86
1203.385;-56.85
1203.584;-56.8
1203.783;-56.68
1203.982;-56.66
1204.181;-56.64
1204.381;-56.56
1204.58;-56.51
1204.779;-56.47
1204.978;-56.46
1205.177;-56.42
1205.376;-56.35
1205.575;-56.34
1205.774;-56.34
1205.974;-56.33
1206.173;-56.28
1206.372;-56.25
1206.571;-56.28
1206.77;-56.27
1206.969;-56.23
1207.168;-56.2
1207.367;-56.19
1207.566;-56.2
1207.766;-56.16
1207.965;-56.14
1208.164;-56.11
1208.363;-56.09
1208.562;-56.09
1208.761;-56.0
1208.96;-55.95
1209.159;-55.94
1209.358;-55.9
1209.558;-55.84
1209.757;-55.79
1209.956;-55.76
1210.155;-55.71
1210.354;-55.63
1210.553;-55.6
1210.752;-55.56
1210.951;-55.5
1211.15;-55.46
1211.35;-55.4
1211.549;-55.38
1211.748;-55.34
1211.947;-55.29
1212.146;-55.24
1212.345;-55.2
1212.544;-55.22
1212.743;-55.16
1212.943;-55.11
1213.142;-55.1
1213.341;-55.08
1213.54;-55.04
1213.739;-54.98
1213.938;-54.97
1214.137;-54.94
1214.336;-54.87
1214.535;-54.85
1214.735;-54.8
1214.934;-54.74
1215.133;-54.68
1215.332;-54.62
1215.531;-54.58
1215.73;-54.51
1215.929;-54.46
1216.128;-54.37
1216.327;-54.29
1216.527;-54.27
1216.726;-54.18
1216.925;-54.08
1217.124;-54.01
1217.323;-53.95
1217.522;-53.88
1217.721;-53.78
1217.92;-53.73
1218.12;-53.67
1218.319;-53.59
1218.518;-53.54
1218.717;-53.46
1218.916;-53.41
1219.115;-53.36
1219.314;-53.29
1219.513;-53.25
1219.712;-53.2
1219.912;-53.16
1220.111;-53.09
1220.31;-53.04
1220.509;-53.02
1220.708;-52.96
1220.907;-52.9
1221.106;-52.84
1221.305;-52.79
1221.504;-52.74
1221.704;-52.67
1221.903;-52.62
1222.102;-52.55
1222.301;-52.48
1222.5;-52.41
1222.699;-52.33
1222.898;-52.27
1223.097;-52.19
1223.297;-52.1
1223.496;-52.03
1223.695;-51.95
1223.894;-51.88
1224.093;-51.79
1224.292;-51.72
1224.491;-51.66
1224.69;-51.58
1224.889;-51.51
1225.089;-51.45
1225.288;-51.38
1225.487;-51.33
1225.686;-51.26
1225.885;-51.22
1226.084;-51.17
1226.283;-51.12
1226.482;-51.09
1226.681;-51.04
1226.881;-51.01
1227.08;-50.97
1227.279;-50.93
1227.478;-50.9
1227.677;-50.86
1227.876;-50.83
1228.075;-50.78
1228.274;-50.74
1228.474;-50.7
1228.673;-50.64
1228.872;-50.59
1229.071;-50.54
1229.27;-50.48
1229.469;-50.42
1229.668;-50.35
1229.867;-50.28
1230.066;-50.22
1230.266;-50.13
1230.465;-50.05
1230.664;-49.97
1230.863;-49.91
1231.062;-49.84
1231.261;-49.77
1231.46;-49.71
1231.659;-49.63
1231.858;-49.56
1232.058;-49.49
1232.257;-49.41
1232.456;-49.36
1232.655;-49.28
1232.854;-49.21
1233.053;-49.13
1233.252;-49.05
1233.451;-48.98
1233.65;-48.89
1233.85;-48.82
1234.049;-48.73
1234.248;-48.62
1234.447;-48.54
1234.646;-48.44
1234.845;-48.35
1235.044;-48.23
1235.243;-48.12
1235.443;-48.01
1235.642;-47.9
1235.841;-47.79
1236.04;-47.67
1236.239;-47.55
1236.438;-47.43
1236.637;-47.31
1236.836;-47.2
1237.035;-47.08
1237.235;-46.97
1237.434;-46.85
1237.633;-46.75
1237.832;-46.66
1238.031;-46.54
1238.23;-46.45
1238.429;-46.34
1238.628;-46.24
1238.827;-46.15
1239.027;-46.05
1239.226;-45.95
1239.425;-45.82
1239.624;-45.76
1239.823;-45.65
1240.022;-45.55
1240.221;-45.46
1240.42;-45.35
1240.62;-45.26
1240.819;-45.14
1241.018;-45.03
1241.217;-44.93
1241.416;-44.81
1241.615;-44.71
1241.814;-44.6
1242.013;-44.5
1242.212;-44.4
1242.412;-44.3
1242.611;-44.21
1242.81;-44.11
1243.009;-44.01
1243.208;-43.94
1243.407;-43.86
1243.606;-43.78
1243.805;-43.71
1244.004;-43.64
1244.204;-43.59
1244.403;-43.52
1244.602;-43.48
1244.801;-43.42
1245.0;-43.38
1245.199;-43.35
1245.398;-43.3
1245.597;-43.27
1245.797;-43.23
1245.996;-43.19
1246.195;-43.17
1246.394;-43.14
1246.593;-43.11
1246.792;-43.08
1246.991;-43.04
1247.19;-43.02
1247.389;-43.0
1247.589;-42.98
1247.788;-42.95
1247.987;-42.92
1248.186;-42.91
1248.385;-42.89
1248.584;-42.88
1248.783;-42.86
1248.982;-42.85
1249.181;-42.86
1249.381;-42.85
1249.58;-42.86
1249.779;-42.86
1249.978;-42.86
1250.177;-42.89
1250.376;-42.91
1250.575;-42.94
1250.774;-42.96
1250.974;-43.0
1251.173;-43.04
1251.372;-43.07
1251.571;-43.13
1251.77;-43.15
1251.969;-43.18
1252.168;-43.22
1252.367;-43.24
1252.566;-43.28
1252.766;-43.27
1252.965;-43.29
1253.164;-43.29
1253.363;-43.27
1253.562;-43.27
1253.761;-43.23
1253.96;-43.2
1254.159;-43.14
1254.358;-43.06
1254.558;-43.0
1254.757;-42.9
1254.956;-42.8
1255.155;-42.69
1255.354;-42.56
1255.553;-42.44
1255.752;-42.28
1255.951;-42.13
1256.15;-41.96
1256.35;-41.77
1256.549;-41.61
1256.748;-41.4
1256.947;-41.21
1257.146;-40.99
1257.345;-40.77
1257.544;-40.57
1257.743;-40.34
1257.943;-40.12
1258.142;-39.89
1258.341;-39.65
1258.54;-39.43
1258.739;-39.18
1258.938;-38.95
1259.137;-38.71
1259.336;-38.47
1259.535;-38.24
1259.735;-37.99
1259.934;-37.77
1260.133;-37.53
1260.332;-37.3
1260.531;-37.06
1260.73;-36.83
1260.929;-36.61
1261.128;-36.37
1261.327;-36.16
1261.527;-35.91
1261.726;-35.73
1261.925;-35.52
1262.124;-35.31
1262.323;-35.12
1262.522;-34.92
1262.721;-34.73
1262.92;-34.54
1263.12;-34.34
1263.319;-34.17
1263.518;-33.99
1263.717;-33.82
1263.916;-33.64
1264.115;-33.46
1264.314;-33.31
1264.513;-33.14
1264.712;-32.99
1264.912;-32.82
1265.111;-32.67
1265.31;-32.52
1265.509;-32.38
1265.708;-32.25
1265.907;-32.1
1266.106;-31.97
1266.305;-31.85
1266.504;-31.74
1266.704;-31.63
1266.903;-31.51
1267.102;-31.4
1267.301;-31.31
1267.5;-31.22
1267.699;-31.14
1267.898;-31.04
1268.097;-30.97
1268.297;-30.89
1268.496;-30.83
1268.695;-30.76
1268.894;-30.69
1269.093;-30.63
1269.292;-30.57
1269.491;-30.52
1269.69;-30.48
1269.889;-30.43
1270.089;-30.39
1270.288;-30.35
1270.487;-30.32
1270.686;-30.3
1270.885;-30.27
1271.084;-30.25
1271.283;-30.23
1271.482;-30.22
1271.681;-30.22
1271.881;-30.21
1272.08;-30.23
1272.279;-30.24
1272.478;-30.25
1272.677;-30.29
1272.876;-30.32
1273.075;-30.37
1273.274;-30.41
1273.474;-30.46
1273.673;-30.53
1273.872;-30.59
1274.071;-30.67
1274.27;-30.74
1274.469;-30.83
1274.668;-30.92
1274.867;-31.01
1275.066;-31.12
1275.266;-31.22
1275.465;-31.33
1275.664;-31.45
1275.863;-31.57
1276.062;-31.71
1276.261;-31.84
1276.46;-31.99
1276.659;-32.12
1276.858;-32.28
1277.058;-32.47
1277.257;-32.64
1277.456;-32.83
1277.655;-33.02
1277.854;-33.22
1278.053;-33.43
1278.252;-33.64
1278.451;-33.88
1278.65;-34.09
1278.85;-34.32
1279.049;-34.56
1279.248;-34.77
1279.447;-35.01
1279.646;-35.21
1279.845;-35.41
1280.044;-35.59
1280.243;-35.74
1280.443;-35.89
1280.642;-35.98
1280.841;-36.04
1281.04;-36.05
1281.239;-36.01
1281.438;-35.94
1281.637;-35.8
1281.836;-35.63
1282.035;-35.4
1282.235;-35.14
1282.434;-34.85
1282.633;-34.52
1282.832;-34.18
1283.031;-33.81
1283.23;-33.43
1283.429;-33.04
1283.628;-32.64
1283.827;-32.26
1284.027;-31.86
1284.226;-31.47
1284.425;-31.09
1284.624;-30.7
1284.823;-30.34
1285.022;-29.96
1285.221;-29.61
1285.42;-29.26
1285.62;-28.92
1285.819;-28.6
1286.018;-28.26
1286.217;-27.96
1286.416;-27.64
1286.615;-27.35
1286.814;-27.07
1287.013;-26.77
1287.212;-26.51
1287.412;-26.23
1287.611;-25.94
1287.81;-25.72
1288.009;-25.47
1288.208;-25.25
1288.407;-25.02
1288.606;-24.81
1288.805;-24.59
1289.004;-24.38
1289.204;-24.19
1289.403;-23.99
1289.602;-23.81
1289.801;-23.62
1290.0;-23.45
1290.199;-23.29
1290.398;-23.13
1290.597;-22.99
1290.797;-22.83
1290.996;-22.67
1291.195;-22.54
1291.394;-22.4
1291.593;-22.27
1291.792;-22.14
1291.991;-22.03
1292.19;-21.92
1292.389;-21.81
1292.589;-21.71
1292.788;-21.6
1292.987;-21.52
1293.186;-21.43
1293.385;-21.35
1293.584;-21.28
1293.783;-21.2
1293.982;-21.15
1294.181;-21.09
1294.381;-21.04
1294.58;-20.99
1294.779;-20.94
1294.978;-20.92
1295.177;-20.88
1295.376;-20.86
1295.575;-20.83
1295.774;-20.8
1295.974;-20.79
1296.173;-20.77
1296.372;-20.78
1296.571;-20.77
1296.77;-20.77
1296.969;-20.8
1297.168;-20.81
1297.367;-20.84
1297.566;-20.86
1297.766;-20.88
1297.965;-20.94
1298.164;-20.97
1298.363;-21.04
1298.562;-21.08
1298.761;-21.14
1298.96;-21.22
1299.159;-21.29
1299.358;-21.39
1299.558;-21.46
1299.757;-21.56
1299.956;-21.67
1300.155;-21.77
1300.354;-21.91
1300.553;-22.01
1300.752;-22.15
1300.951;-22.29
1301.15;-22.44
1301.35;-22.61
1301.549;-22.78
1301.748;-22.96
1301.947;-23.14
1302.146;-23.34
1302.345;-23.55
1302.544;-23.77
1302.743;-24.01
1302.943;-24.24
1303.142;-24.5
1303.341;-24.76
1303.54;-25.05
1303.739;-25.35
1303.938;-25.65
1304.137;-25.98
1304.336;-26.31
1304.535;-26.68
1304.735;-27.06
1304.934;-27.45
1305.133;-27.88
1305.332;-28.39
1305.531;-28.78
1305.73;-29.24
1305.929;-29.73
1306.128;-30.24
1306.327;-30.74
1306.527;-31.27
1306.726;-31.77
1306.925;-32.25
1307.124;-32.7
1307.323;-33.08
1307.522;-33.4
1307.721;-33.58
1307.92;-33.65
1308.12;-33.61
1308.319;-33.42
1308.518;-33.15
1308.717;-32.75
1308.916;-32.3
1309.115;-31.82
1309.314;-31.29
1309.513;-30.78
1309.712;-30.24
1309.912;-29.73
1310.111;-29.22
1310.31;-28.73
1310.509;-28.28
1310.708;-27.81
1310.907;-27.38
1311.106;-26.96
1311.305;-26.56
1311.504;-26.12
1311.704;-25.83
1311.903;-25.5
1312.102;-25.17
1312.301;-24.87
1312.5;-24.58
1312.699;-24.3
1312.898;-24.03
1313.097;-23.78
1313.297;-23.55
1313.496;-23.32
1313.695;-23.12
1313.894;-22.9
1314.093;-22.72
1314.292;-22.54
1314.491;-22.37
1314.69;-22.22
1314.889;-22.05
1315.089;-21.91
1315.288;-21.78
1315.487;-21.65
1315.686;-21.54
1315.885;-21.42
1316.084;-21.33
1316.283;-21.23
1316.482;-21.15
1316.681;-21.09
1316.881;-21.01
1317.08;-20.96
1317.279;-20.9
1317.478;-20.86
1317.677;-20.82
1317.876;-20.77
1318.075;-20.76
1318.274;-20.73
1318.474;-20.72
1318.673;-20.72
1318.872;-20.71
1319.071;-20.74
1319.27;-20.74
1319.469;-20.75
1319.668;-20.78
1319.867;-20.8
1320.066;-20.85
1320.266;-20.88
1320.465;-20.93
1320.664;-20.99
1320.863;-21.04
1321.062;-21.1
1321.261;-21.16
1321.46;-21.25
1321.659;-21.32
1321.858;-21.4
1322.058;-21.49
1322.257;-21.58
1322.456;-21.69
1322.655;-21.79
1322.854;-21.9
1323.053;-22.02
1323.252;-22.13
1323.451;-22.27
1323.65;-22.39
1323.85;-22.54
1324.049;-22.67
1324.248;-22.82
1324.447;-22.97
1324.646;-23.12
1324.845;-23.29
1325.044;-23.44
1325.243;-23.62
1325.443;-23.79
1325.642;-23.98
1325.841;-24.17
1326.04;-24.35
1326.239;-24.55
1326.438;-24.74
1326.637;-24.93
1326.836;-25.14
1327.035;-25.35
1327.235;-25.57
1327.434;-25.77
1327.633;-25.99
1327.832;-26.22
1328.031;-26.44
1328.23;-26.68
1328.429;-26.89
1328.628;-27.13
1328.827;-27.36
1329.027;-27.59
1329.226;-27.83
1329.425;-28.05
1329.624;-28.29
1329.823;-28.57
1330.022;-28.77
1330.221;-28.99
1330.42;-29.22
1330.62;-29.46
1330.819;-29.68
1331.018;-29.92
1331.217;-30.14
1331.416;-30.37
1331.615;-30.57
1331.814;-30.77
1332.013;-30.98
1332.212;-31.17
1332.412;-31.37
1332.611;-31.54
1332.81;-31.71
1333.009;-31.87
1333.208;-32.02
1333.407;-32.18
1333.606;-32.3
1333.805;-32.44
1334.004;-32.55
1334.204;-32.66
1334.403;-32.76
1334.602;-32.85
1334.801;-32.94
1335.0;-33.01
1335.199;-33.08
1335.398;-33.14
1335.597;-33.19
1335.797;-33.27
1335.996;-33.31
1336.195;-33.37
1336.394;-33.4
1336.593;-33.44
1336.792;-33.47
1336.991;-33.51
1337.19;-33.55
1337.389;-33.58
1337.589;-33.62
1337.788;-33.66
1337.987;-33.69
1338.186;-33.74
1338.385;-33.77
1338.584;-33.82
1338.783;-33.85
1338.982;-33.9
1339.181;-33.96
1339.381;-34.0
1339.58;-34.07
1339.779;-34.11
1339.978;-34.18
1340.177;-34.25
1340.376;-34.31
1340.575;-34.4
1340.774;-34.47
1340.974;-34.55
1341.173;-34.62
1341.372;-34.7
1341.571;-34.8
1341.77;-34.88
1341.969;-34.99
1342.168;-35.08
1342.367;-35.18
1342.566;-35.28
1342.766;-35.39
1342.965;-35.52
1343.164;-35.62
1343.363;-35.75
1343.562;-35.87
1343.761;-36.0
1343.96;-36.14
1344.159;-36.28
1344.358;-36.43
1344.558;-36.57
1344.757;-36.71
1344.956;-36.86
1345.155;-37.01
1345.354;-37.16
1345.553;-37.31
1345.752;-37.47
1345.951;-37.64
1346.15;-37.8
1346.35;-38.0
1346.549;-38.18
1346.748;-38.36
1346.947;-38.57
1347.146;-38.73
1347.345;-38.88
1347.544;-39.12
1347.743;-39.37
1347.943;-39.59
1348.142;-39.8
1348.341;-40.01
1348.54;-40.19
1348.739;-40.38
1348.938;-40.58
1349.137;-40.8
1349.336;-40.98
1349.535;-41.2
1349.735;-41.4
1349.934;-41.63
1350.133;-41.9
1350.332;-42.2
1350.531;-42.48
1350.73;-42.72
1350.929;-42.94
1351.128;-43.14
1351.327;-43.38
1351.527;-43.65
1351.726;-43.96
1351.925;-44.25
1352.124;-44.52
1352.323;-44.79
1352.522;-45.11
1352.721;-45.37
1352.92;-45.65
1353.12;-46.02
1353.319;-46.25
1353.518;-46.54
1353.717;-46.86
1353.916;-47.1
1354.115;-47.37
1354.314;-47.74
1354.513;-48.07
1354.712;-48.62
1354.912;-48.97
1355.111;-49.3
1355.31;-49.6
1355.509;-49.75
1355.708;-50.16
1355.907;-50.57
1356.106;-50.9
1356.305;-51.16
1356.504;-51.43
1356.704;-51.49
1356.903;-51.77
1357.102;-52.29
1357.301;-52.65
1357.5;-52.97
1357.699;-53.28
1357.898;-53.44
1358.097;-53.6
1358.297;-53.86
1358.496;-54.16
1358.695;-54.34
1358.894;-54.53
1359.093;-54.71
1359.292;-54.74
1359.491;-55.1
1359.69;-55.35
1359.889;-55.48
1360.089;-55.46
1360.288;-55.38
1360.487;-55.27
1360.686;-55.29
1360.885;-55.51
1361.084;-55.63
1361.283;-55.6
1361.482;-55.59
1361.681;-55.62
1361.881;-55.58
1362.08;-55.57
1362.279;-55.82
1362.478;-55.83
1362.677;-55.73
1362.876;-55.39
1363.075;-55.11
1363.274;-54.7
1363.474;-54.57
1363.673;-54.46
1363.872;-54.4
1364.071;-54.42
1364.27;-54.43
1364.469;-54.55
1364.668;-54.9
1364.867;-54.92
1365.066;-54.69
1365.266;-54.7
1365.465;-54.48
1365.664;-54.39
1365.863;-54.27
1366.062;-54.12
1366.261;-53.97
1366.46;-53.89
1366.659;-53.93
1366.858;-54.04
1367.058;-54.06
1367.257;-54.04
1367.456;-54.19
1367.655;-54.27
1367.854;-54.43
1368.053;-54.46
1368.252;-54.33
1368.451;-54.59
1368.65;-54.58
1368.85;-54.6
1369.049;-54.49
1369.248;-54.37
1369.447;-54.25
1369.646;-54.28
1369.845;-54.56
1370.044;-54.68
1370.243;-54.76
1370.443;-54.76
1370.642;-54.73
1370.841;-55.01
1371.04;-55.23
1371.239;-55.39
1371.438;-55.37
1371.637;-55.3
1371.836;-55.26
1372.035;-55.42
1372.235;-55.62
1372.434;-55.7
1372.633;-55.78
1372.832;-55.8
1373.031;-55.84
1373.23;-55.98
1373.429;-56.13
1373.628;-56.26
1373.827;-56.35
1374.027;-56.51
1374.226;-56.61
1374.425;-56.8
1374.624;-56.96
1374.823;-57.18
1375.022;-57.42
1375.221;-57.55
1375.42;-57.68
1375.62;-57.81
1375.819;-57.96
1376.018;-58.2
1376.217;-58.46
1376.416;-58.62
1376.615;-58.8
1376.814;-59.07
1377.013;-59.39
1377.212;-59.67
1377.412;-59.85
1377.611;-60.05
1377.81;-60.14
1378.009;-60.34
1378.208;-60.59
1378.407;-60.89
1378.606;-61.29
1378.805;-61.74
1379.004;-62.04
1379.204;-62.3
1379.403;-62.48
1379.602;-62.64
1379.801;-62.88
1380.0;-63.21
1380.199;-63.61
1380.398;-64.01
1380.597;-64.77
1380.797;-65.53
1380.996;-65.91
1381.195;-66.27
1381.394;-66.22
1381.593;-66.22
1381.792;-66.58
1381.991;-66.86
1382.19;-67.24
1382.389;-67.81
1382.589;-68.61
1382.788;-69.41
1382.987;-69.9
1383.186;-69.86
1383.385;-69.82
1383.584;-69.71
1383.783;-69.93
1383.982;-70.34
1384.181;-70.54
1384.381;-70.52
1384.58;-70.52
1384.779;-70.39
1384.978;-70.67
1385.177;-70.74
1385.376;-70.56
1385.575;-70.39
1385.774;-70.21
1385.974;-70.14
1386.173;-69.76
1386.372;-69.63
1386.571;-69.17
1386.77;-69.07
1386.969;-68.8
1387.168;-68.4
1387.367;-68.22
1387.566;-67.98
1387.766;-67.95
1387.965;-68.0
1388.164;-67.93
1388.363;-67.75
1388.562;-67.39
1388.761;-66.94
1388.96;-66.68
1389.159;-66.41
1389.358;-66.13
1389.558;-65.97
1389.757;-65.89
1389.956;-65.8
1390.155;-65.65
1390.354;-65.48
1390.553;-65.34
1390.752;-65.15
1390.951;-65.02
1391.15;-64.88
1391.35;-64.77
1391.549;-64.72
1391.748;-64.59
1391.947;-64.59
1392.146;-64.56
1392.345;-64.68
1392.544;-64.95
1392.743;-64.91
1392.943;-64.7
1393.142;-64.51
1393.341;-64.1
1393.54;-63.99
1393.739;-63.95
1393.938;-63.92
1394.137;-63.85
1394.336;-63.86
1394.535;-63.82
1394.735;-63.87
1394.934;-64.08
1395.133;-64.19
1395.332;-64.2
1395.531;-64.26
1395.73;-64.21
1395.929;-64.06
1396.128;-64.05
1396.327;-64.13
1396.527;-64.38
1396.726;-64.49
1396.925;-64.38
1397.124;-64.18
1397.323;-64.07
1397.522;-64.01
1397.721;-64.03
1397.92;-64.05
1398.12;-64.08
1398.319;-64.13
1398.518;-64.21
1398.717;-64.3
1398.916;-64.35
1399.115;-64.39
1399.314;-64.5
1399.513;-64.79
1399.712;-65.0
1399.912;-65.11
1400.111;-65.21
1400.31;-65.23
1400.509;-65.29
1400.708;-65.72
1400.907;-65.82
1401.106;-65.87
1401.305;-65.96
1401.504;-65.91
1401.704;-65.98
1401.903;-66.05
1402.102;-66.15
1402.301;-66.18
1402.5;-66.29
1402.699;-66.42
1402.898;-66.58
1403.097;-66.73
1403.297;-66.81
1403.496;-67.0
1403.695;-67.1
1403.894;-67.23
1404.093;-67.49
1404.292;-67.76
1404.491;-67.99
1404.69;-68.15
1404.889;-68.62
1405.089;-68.85
1405.288;-69.2
1405.487;-68.99
1405.686;-68.96
1405.885;-68.93
1406.084;-69.12
1406.283;-69.23
1406.482;-69.45
1406.681;-69.63
1406.881;-70.0
1407.08;-70.22
1407.279;-70.44
1407.478;-70.69
1407.677;-70.77
1407.876;-70.72
1408.075;-70.85
1408.274;-70.84
1408.474;-70.9
1408.673;-71.35
1408.872;-71.3
1409.071;-71.45
1409.27;-71.62
1409.469;-72.14
1409.668;-71.93
1409.867;-72.26
1410.066;-72.25
1410.266;-72.26
1410.465;-72.26
1410.664;-71.87
1410.863;-72.23
1411.062;-72.3
1411.261;-72.62
1411.46;-72.29
1411.659;-72.39
1411.858;-72.37
1412.058;-72.39
1412.257;-72.55
1412.456;-72.75
1412.655;-72.7
1412.854;-72.35
1413.053;-72.47
1413.252;-72.42
1413.451;-72.49
1413.65;-72.56
1413.85;-72.55
1414.049;-72.61
1414.248;-72.7
1414.447;-72.78
1414.646;-72.98
1414.845;-72.95
1415.044;-72.76
1415.243;-72.8
1415.443;-72.83
1415.642;-72.49
1415.841;-72.7
1416.04;-72.8
1416.239;-72.8
1416.438;-72.66
1416.637;-72.56
1416.836;-72.49
1417.035;-72.43
1417.235;-72.52
1417.434;-72.61
1417.633;-72.65
1417.832;-72.8
1418.031;-72.76
1418.23;-72.77
1418.429;-72.73
1418.628;-72.87
1418.827;-73.0
1419.027;-73.16
1419.226;-73.24
1419.425;-73.5
1419.624;-73.51
1419.823;-73.37
1420.022;-73.31
1420.221;-73.34
1420.42;-73.51
1420.62;-73.7
1420.819;-73.92
1421.018;-73.51
1421.217;-73.89
1421.416;-73.83
1421.615;-73.97
1421.814;-73.9
1422.013;-73.93
1422.212;-74.68
1422.412;-74.53
1422.611;-74.95
1422.81;-74.77
1423.009;-74.65
1423.208;-74.77
1423.407;-75.08
1423.606;-75.18
1423.805;-75.22
1424.004;-75.35
1424.204;-75.19
1424.403;-75.18
1424.602;-76.2
1424.801;-76.31
1425.0;-76.49
