Wavelength;Intensity_Meas;Intensity_Ref;Difference_dB
1200.0000;-62.0900;-57.0700;-5.0200
1200.1990;-62.0500;-57.0400;-5.0100
1200.3980;-61.9700;-57.0000;-4.9700
1200.5970;-61.9100;-56.9900;-4.9200
1200.7970;-61.8000;-56.9700;-4.8300
1200.9960;-61.8200;-56.9200;-4.9000
1201.1950;-61.7800;-56.8900;-4.8900
1201.3940;-61.6800;-56.8600;-4.8200
1201.5930;-61.5900;-56.8100;-4.7800
1201.7920;-61.5800;-56.7700;-4.8100
1201.9910;-61.5400;-56.7100;-4.8300
1202.1900;-61.4600;-56.6600;-4.8000
1202.3890;-61.3700;-56.6200;-4.7500
1202.5890;-61.3900;-56.5700;-4.8200
1202.7880;-61.3700;-56.5200;-4.8500
1202.9870;-61.3100;-56.4600;-4.8500
1203.1860;-61.2300;-56.4100;-4.8200
1203.3850;-61.1600;-56.3700;-4.7900
1203.5840;-61.1800;-56.3200;-4.8600
1203.7830;-61.1800;-56.2800;-4.9000
1203.9820;-61.1300;-56.2400;-4.8900
1204.1810;-61.0600;-56.1900;-4.8700
1204.3810;-61.0700;-56.1700;-4.9000
1204.5800;-61.0800;-56.1300;-4.9500
1204.7790;-61.0200;-56.0900;-4.9300
1204.9780;-61.0300;-56.0600;-4.9700
1205.1770;-61.0300;-56.0400;-4.9900
1205.3760;-61.0700;-56.0100;-5.0600
1205.5750;-61.1100;-55.9900;-5.1200
1205.7740;-61.0800;-55.9800;-5.1000
1205.9740;-61.1500;-55.9500;-5.2000
1206.1730;-61.2300;-55.9400;-5.2900
1206.3720;-61.2300;-55.9300;-5.3000
1206.5710;-61.2100;-55.9100;-5.3000
1206.7700;-61.2300;-55.8800;-5.3500
1206.9690;-61.2900;-55.8600;-5.4300
1207.1680;-61.3000;-55.8300;-5.4700
1207.3670;-61.2400;-55.8100;-5.4300
1207.5660;-61.2300;-55.7800;-5.4500
1207.7660;-61.2000;-55.7500;-5.4500
1207.9650;-61.1900;-55.7100;-5.4800
1208.1640;-61.1200;-55.6800;-5.4400
1208.3630;-60.9800;-55.6600;-5.3200
1208.5620;-60.9400;-55.6000;-5.3400
1208.7610;-60.8900;-55.5600;-5.3300
1208.9600;-60.7900;-55.5100;-5.2800
1209.1590;-60.6200;-55.4500;-5.1700
1209.3580;-60.5300;-55.4100;-5.1200
1209.5580;-60.5100;-55.3600;-5.1500
1209.7570;-60.4000;-55.3100;-5.0900
1209.9560;-60.2900;-55.2600;-5.0300
1210.1550;-60.2000;-55.2100;-4.9900
1210.3540;-60.1000;-55.1800;-4.9200
1210.5530;-60.0600;-55.1100;-4.9500
1210.7520;-59.9600;-55.0700;-4.8900
1210.9510;-59.8600;-55.0300;-4.8300
1211.1500;-59.8200;-54.9800;-4.8400
1211.3500;-59.8100;-54.9500;-4.8600
1211.5490;-59.7600;-54.9100;-4.8500
1211.7480;-59.7100;-54.8700;-4.8400
1211.9470;-59.7100;-54.8400;-4.8700
1212.1460;-59.7100;-54.8100;-4.9000
1212.3450;-59.7100;-54.7800;-4.9300
1212.5440;-59.7400;-54.7600;-4.9800
1212.7430;-59.7700;-54.7400;-5.0300
1212.9430;-59.8500;-54.7100;-5.1400
1213.1420;-59.8800;-54.6700;-5.2100
1213.3410;-59.8700;-54.6500;-5.2200
1213.5400;-59.9300;-54.6200;-5.3100
1213.7390;-59.9800;-54.6000;-5.3800
1213.9380;-60.0100;-54.5600;-5.4500
1214.1370;-59.9900;-54.5300;-5.4600
1214.3360;-60.0000;-54.5100;-5.4900
1214.5350;-60.0300;-54.4600;-5.5700
1214.7350;-60.0000;-54.4300;-5.5700
1214.9340;-59.9800;-54.3900;-5.5900
1215.1330;-59.9000;-54.3400;-5.5600
1215.3320;-59.8400;-54.3000;-5.5400
1215.5310;-59.8100;-54.2500;-5.5600
1215.7300;-59.7300;-54.2000;-5.5300
1215.9290;-59.6100;-54.1500;-5.4600
1216.1280;-59.5200;-54.1000;-5.4200
1216.3270;-59.4200;-54.0400;-5.3800
1216.5270;-59.3100;-53.9900;-5.3200
1216.7260;-59.1500;-53.9300;-5.2200
1216.9250;-59.0400;-53.8800;-5.1600
1217.1240;-58.9200;-53.8100;-5.1100
1217.3230;-58.7800;-53.7700;-5.0100
1217.5220;-58.6600;-53.7200;-4.9400
1217.7210;-58.5300;-53.6700;-4.8600
1217.9200;-58.4500;-53.6200;-4.8300
1218.1200;-58.3700;-53.5700;-4.8000
1218.3190;-58.2800;-53.5300;-4.7500
1218.5180;-58.2100;-53.4800;-4.7300
1218.7170;-58.2000;-53.4500;-4.7500
1218.9160;-58.2000;-53.4100;-4.7900
1219.1150;-58.1500;-53.3600;-4.7900
1219.3140;-58.1700;-53.3500;-4.8200
1219.5130;-58.2300;-53.3200;-4.9100
1219.7120;-58.2600;-53.2800;-4.9800
1219.9120;-58.3100;-53.2400;-5.0700
1220.1110;-58.3400;-53.2100;-5.1300
1220.3100;-58.4000;-53.1800;-5.2200
1220.5090;-58.4900;-53.1400;-5.3500
1220.7080;-58.5300;-53.1100;-5.4200
1220.9070;-58.5600;-53.0700;-5.4900
1221.1060;-58.5900;-53.0200;-5.5700
1221.3050;-58.6400;-52.9800;-5.6600
1221.5040;-58.6300;-52.9100;-5.7200
1221.7040;-58.5900;-52.8700;-5.7200
1221.9030;-58.6000;-52.8100;-5.7900
1222.1020;-58.5600;-52.7400;-5.8200
1222.3010;-58.4900;-52.7000;-5.7900
1222.5000;-58.4200;-52.6200;-5.8000
1222.6990;-58.3100;-52.5600;-5.7500
1222.8980;-58.2200;-52.4900;-5.7300
1223.0970;-58.0800;-52.4200;-5.6600
1223.2970;-57.9300;-52.3700;-5.5600
1223.4960;-57.7700;-52.2800;-5.4900
1223.6950;-57.6000;-52.2200;-5.3800
1223.8940;-57.4400;-52.1600;-5.2800
1224.0930;-57.2400;-52.0800;-5.1600
1224.2920;-57.0500;-52.0300;-5.0200
1224.4910;-56.8800;-51.9500;-4.9300
1224.6900;-56.7100;-51.8900;-4.8200
1224.8890;-56.5400;-51.8300;-4.7100
1225.0890;-56.4000;-51.7700;-4.6300
1225.2880;-56.2700;-51.7200;-4.5500
1225.4870;-56.1900;-51.6500;-4.5400
1225.6860;-56.0800;-51.6100;-4.4700
1225.8850;-56.0300;-51.5600;-4.4700
1226.0840;-55.9900;-51.5000;-4.4900
1226.2830;-55.9600;-51.4700;-4.4900
1226.4820;-55.9600;-51.4000;-4.5600
1226.6810;-55.9700;-51.3600;-4.6100
1226.8810;-56.0100;-51.3100;-4.7000
1227.0800;-56.0200;-51.2500;-4.7700
1227.2790;-56.0500;-51.2200;-4.8300
1227.4780;-56.1000;-51.1500;-4.9500
1227.6770;-56.1400;-51.1000;-5.0400
1227.8760;-56.1900;-51.0500;-5.1400
1228.0750;-56.2100;-50.9800;-5.2300
1228.2740;-56.2400;-50.9300;-5.3100
1228.4740;-56.2800;-50.8500;-5.4300
1228.6730;-56.2900;-50.7900;-5.5000
1228.8720;-56.2900;-50.7300;-5.5600
1229.0710;-56.2800;-50.6500;-5.6300
1229.2700;-56.2800;-50.5900;-5.6900
1229.4690;-56.2700;-50.5000;-5.7700
1229.6680;-56.2100;-50.4300;-5.7800
1229.8670;-56.1600;-50.3500;-5.8100
1230.0660;-56.1100;-50.2700;-5.8400
1230.2660;-56.0400;-50.2100;-5.8300
1230.4650;-55.9600;-50.1100;-5.8500
1230.6640;-55.8600;-50.0300;-5.8300
1230.8630;-55.8000;-49.9800;-5.8200
1231.0620;-55.6800;-49.9000;-5.7800
1231.2610;-55.6200;-49.8500;-5.7700
1231.4600;-55.5500;-49.7900;-5.7600
1231.6590;-55.4900;-49.7200;-5.7700
1231.8580;-55.4400;-49.6600;-5.7800
1232.0580;-55.3900;-49.6000;-5.7900
1232.2570;-55.3800;-49.5500;-5.8300
1232.4560;-55.3600;-49.4900;-5.8700
1232.6550;-55.3500;-49.4400;-5.9100
1232.8540;-55.3600;-49.3700;-5.9900
1233.0530;-55.3900;-49.3200;-6.0700
1233.2520;-55.4100;-49.2800;-6.1300
1233.4510;-55.4100;-49.2100;-6.2000
1233.6500;-55.4300;-49.1700;-6.2600
1233.8500;-55.4400;-49.1000;-6.3400
1234.0490;-55.4300;-49.0400;-6.3900
1234.2480;-55.4200;-48.9800;-6.4400
1234.4470;-55.3600;-48.9000;-6.4600
1234.6460;-55.3200;-48.8500;-6.4700
1234.8450;-55.2600;-48.7800;-6.4800
1235.0440;-55.1500;-48.7000;-6.4500
1235.2430;-55.0500;-48.6300;-6.4200
1235.4430;-54.9100;-48.5400;-6.3700
1235.6420;-54.7800;-48.4800;-6.3000
1235.8410;-54.6300;-48.3800;-6.2500
1236.0400;-54.4600;-48.3000;-6.1600
1236.2390;-54.3100;-48.2100;-6.1000
1236.4380;-54.1200;-48.1100;-6.0100
1236.6370;-53.9500;-48.0400;-5.9100
1236.8360;-53.7800;-47.9400;-5.8400
1237.0350;-53.6200;-47.8600;-5.7600
1237.2350;-53.4600;-47.7700;-5.6900
1237.4340;-53.2900;-47.6800;-5.6100
1237.6330;-53.1500;-47.6100;-5.5400
1237.8320;-53.0300;-47.5200;-5.5100
1238.0310;-52.9000;-47.4400;-5.4600
1238.2300;-52.8100;-47.3600;-5.4500
1238.4290;-52.7200;-47.2700;-5.4500
1238.6280;-52.6600;-47.2100;-5.4500
1238.8270;-52.5900;-47.1200;-5.4700
1239.0270;-52.5500;-47.0600;-5.4900
1239.2260;-52.5200;-46.9600;-5.5600
1239.4250;-52.4800;-46.8800;-5.6000
1239.6240;-52.4700;-46.8100;-5.6600
1239.8230;-52.4300;-46.7200;-5.7100
1240.0220;-52.4100;-46.6500;-5.7600
1240.2210;-52.3700;-46.5400;-5.8300
1240.4200;-52.3000;-46.4500;-5.8500
1240.6200;-52.2400;-46.3700;-5.8700
1240.8190;-52.1500;-46.2600;-5.8900
1241.0180;-52.0300;-46.1600;-5.8700
1241.2170;-51.9200;-46.0400;-5.8800
1241.4160;-51.7800;-45.9100;-5.8700
1241.6150;-51.6500;-45.8000;-5.8500
1241.8140;-51.4900;-45.6900;-5.8000
1242.0130;-51.3400;-45.5700;-5.7700
1242.2120;-51.2200;-45.4400;-5.7800
1242.4120;-51.0700;-45.3300;-5.7400
1242.6110;-50.9300;-45.1800;-5.7500
1242.8100;-50.8000;-45.0600;-5.7400
1243.0090;-50.6700;-44.9200;-5.7500
1243.2080;-50.5700;-44.8000;-5.7700
1243.4070;-50.4500;-44.6800;-5.7700
1243.6060;-50.3500;-44.5300;-5.8200
1243.8050;-50.2500;-44.4100;-5.8400
1244.0040;-50.1600;-44.2800;-5.8800
1244.2040;-50.0800;-44.1500;-5.9300
1244.4030;-50.0000;-44.0300;-5.9700
1244.6020;-49.9300;-43.8800;-6.0500
1244.8010;-49.8400;-43.7600;-6.0800
1245.0000;-49.7700;-43.6400;-6.1300
1245.1990;-49.7100;-43.5100;-6.2000
1245.3980;-49.6200;-43.4000;-6.2200
1245.5970;-49.5300;-43.2500;-6.2800
1245.7970;-49.4200;-43.1300;-6.2900
1245.9960;-49.3100;-42.9900;-6.3200
1246.1950;-49.1800;-42.8500;-6.3300
1246.3940;-49.0300;-42.7300;-6.3000
1246.5930;-48.8700;-42.5700;-6.3000
1246.7920;-48.6800;-42.4300;-6.2500
1246.9910;-48.4700;-42.2800;-6.1900
1247.1900;-48.2800;-42.1200;-6.1600
1247.3890;-48.0700;-41.9800;-6.0900
1247.5890;-47.8600;-41.8100;-6.0500
1247.7880;-47.6500;-41.6600;-5.9900
1247.9870;-47.4600;-41.4900;-5.9700
1248.1860;-47.3000;-41.3300;-5.9700
1248.3850;-47.1600;-41.1800;-5.9800
1248.5840;-47.0400;-41.0000;-6.0400
1248.7830;-46.9600;-40.8400;-6.1200
1248.9820;-46.9200;-40.6800;-6.2400
1249.1810;-46.9300;-40.5200;-6.4100
1249.3810;-46.9600;-40.3600;-6.6000
1249.5800;-47.0400;-40.1800;-6.8600
1249.7790;-47.1500;-40.0300;-7.1200
1249.9780;-47.2800;-39.8600;-7.4200
1250.1770;-47.4700;-39.7000;-7.7700
1250.3760;-47.6500;-39.5600;-8.0900
1250.5750;-47.8400;-39.3900;-8.4500
1250.7740;-48.0000;-39.2300;-8.7700
1250.9740;-48.1400;-39.0900;-9.0500
1251.1730;-48.1800;-38.9300;-9.2500
1251.3720;-48.1100;-38.7900;-9.3200
1251.5710;-47.9400;-38.6400;-9.3000
1251.7700;-47.6000;-38.4900;-9.1100
1251.9690;-47.1300;-38.3300;-8.8000
1252.1680;-46.5500;-38.1700;-8.3800
1252.3670;-45.8800;-38.0300;-7.8500
1252.5660;-45.0800;-37.8700;-7.2100
1252.7660;-44.4600;-37.7100;-6.7500
1252.9650;-43.7600;-37.5600;-6.2000
1253.1640;-43.0500;-37.3900;-5.6600
1253.3630;-42.3800;-37.2400;-5.1400
1253.5620;-41.7300;-37.0800;-4.6500
1253.7610;-41.1400;-36.9200;-4.2200
1253.9600;-40.6100;-36.7600;-3.8500
1254.1590;-40.1100;-36.5900;-3.5200
1254.3580;-39.6800;-36.4400;-3.2400
1254.5580;-39.2900;-36.2700;-3.0200
1254.7570;-38.9400;-36.1200;-2.8200
1254.9560;-38.6700;-35.9500;-2.7200
1255.1550;-38.4400;-35.7800;-2.6600
1255.3540;-38.2700;-35.6400;-2.6300
1255.5530;-38.1400;-35.4900;-2.6500
1255.7520;-38.0700;-35.3400;-2.7300
1255.9510;-38.0700;-35.1700;-2.9000
1256.1500;-38.1100;-35.0400;-3.0700
1256.3500;-38.2300;-34.8700;-3.3600
1256.5490;-38.4000;-34.7200;-3.6800
1256.7480;-38.6300;-34.5700;-4.0600
1256.9470;-38.9400;-34.4200;-4.5200
1257.1460;-39.3100;-34.2700;-5.0400
1257.3450;-39.7700;-34.1000;-5.6700
1257.5440;-40.2900;-33.9600;-6.3300
1257.7430;-40.8800;-33.8100;-7.0700
1257.9430;-41.5300;-33.6500;-7.8800
1258.1420;-42.2100;-33.5100;-8.7000
1258.3410;-42.8600;-33.3400;-9.5200
1258.5400;-43.3500;-33.1900;-10.1600
1258.7390;-43.5900;-33.0300;-10.5600
1258.9380;-43.4400;-32.8700;-10.5700
1259.1370;-42.9200;-32.7300;-10.1900
1259.3360;-42.1200;-32.5600;-9.5600
1259.5350;-41.1300;-32.4200;-8.7100
1259.7350;-40.1000;-32.2700;-7.8300
1259.9340;-39.0700;-32.1100;-6.9600
1260.1330;-38.1200;-31.9700;-6.1500
1260.3320;-37.2300;-31.8100;-5.4200
1260.5310;-36.4300;-31.6800;-4.7500
1260.7300;-35.5900;-31.5300;-4.0600
1260.9290;-35.0500;-31.3800;-3.6700
1261.1280;-34.5000;-31.2500;-3.2500
1261.3270;-33.9900;-31.0900;-2.9000
1261.5270;-33.5700;-30.9700;-2.6000
1261.7260;-33.2200;-30.8200;-2.4000
1261.9250;-32.9100;-30.6800;-2.2300
1262.1240;-32.6800;-30.5500;-2.1300
1262.3230;-32.4900;-30.4000;-2.0900
1262.5220;-32.3700;-30.2700;-2.1000
1262.7210;-32.3200;-30.1300;-2.1900
1262.9200;-32.3100;-29.9800;-2.3300
1263.1200;-32.3700;-29.8500;-2.5200
1263.3190;-32.4800;-29.6900;-2.7900
1263.5180;-32.6600;-29.5600;-3.1000
1263.7170;-32.9100;-29.4100;-3.5000
1263.9160;-33.2100;-29.2600;-3.9500
1264.1150;-33.5700;-29.1300;-4.4400
1264.3140;-33.9700;-28.9600;-5.0100
1264.5130;-34.4400;-28.8300;-5.6100
1264.7120;-34.9200;-28.6800;-6.2400
1264.9120;-35.3800;-28.5300;-6.8500
1265.1110;-35.8000;-28.3900;-7.4100
1265.3100;-36.0700;-28.2300;-7.8400
1265.5090;-36.1800;-28.1000;-8.0800
1265.7080;-36.0600;-27.9500;-8.1100
1265.9070;-35.7100;-27.8100;-7.9000
1266.1060;-35.1900;-27.6800;-7.5100
1266.3050;-34.5100;-27.5400;-6.9700
1266.5040;-33.8000;-27.4200;-6.3800
1266.7040;-33.0700;-27.2900;-5.7800
1266.9030;-32.3600;-27.1600;-5.2000
1267.1020;-31.7100;-27.0400;-4.6700
1267.3010;-31.0900;-26.9100;-4.1800
1267.5000;-30.5500;-26.8000;-3.7500
1267.6990;-30.0700;-26.6800;-3.3900
1267.8980;-29.6400;-26.5600;-3.0800
1268.0970;-29.3100;-26.4600;-2.8500
1268.2970;-29.0000;-26.3300;-2.6700
1268.4960;-28.7900;-26.2300;-2.5600
1268.6950;-28.6300;-26.0800;-2.5500
1268.8940;-28.5300;-25.9900;-2.5400
1269.0930;-28.5100;-25.8800;-2.6300
1269.2920;-28.5300;-25.7500;-2.7800
1269.4910;-28.6500;-25.6500;-3.0000
1269.6900;-28.8400;-25.5100;-3.3300
1269.8890;-29.1000;-25.3900;-3.7100
1270.0890;-29.4600;-25.2600;-4.2000
1270.2880;-29.9100;-25.1300;-4.7800
1270.4870;-30.4900;-25.0300;-5.4600
1270.6860;-31.1700;-24.8900;-6.2800
1270.8850;-32.0000;-24.7600;-7.2400
1271.0840;-32.9700;-24.6300;-8.3400
1271.2830;-34.0600;-24.5100;-9.5500
1271.4820;-35.2500;-24.3900;-10.8600
1271.6810;-36.4000;-24.2600;-12.1400
1271.8810;-37.2000;-24.1500;-13.0500
1272.0800;-37.2700;-24.0300;-13.2400
1272.2790;-36.5100;-23.9100;-12.6000
1272.4780;-35.2300;-23.8200;-11.4100
1272.6770;-33.7800;-23.7000;-10.0800
1272.8760;-32.3700;-23.6100;-8.7600
1273.0750;-31.0900;-23.5000;-7.5900
1273.2740;-29.9200;-23.4000;-6.5200
1273.4740;-28.9100;-23.3200;-5.5900
1273.6730;-28.0000;-23.2100;-4.7900
1273.8720;-27.2100;-23.1300;-4.0800
1274.0710;-26.5200;-23.0300;-3.4900
1274.2700;-25.8200;-22.9300;-2.8900
1274.4690;-25.3900;-22.8500;-2.5400
1274.6680;-24.9500;-22.7500;-2.2000
1274.8670;-24.5900;-22.6600;-1.9300
1275.0660;-24.2700;-22.5600;-1.7100
1275.2660;-24.0400;-22.4700;-1.5700
1275.4650;-23.8600;-22.3800;-1.4800
1275.6640;-23.7400;-22.2700;-1.4700
1275.8630;-23.7100;-22.1800;-1.5300
1276.0620;-23.7300;-22.0700;-1.6600
1276.2610;-23.8200;-21.9700;-1.8500
1276.4600;-23.9600;-21.8700;-2.0900
1276.6590;-24.1800;-21.7500;-2.4300
1276.8580;-24.4900;-21.6600;-2.8300
1277.0580;-24.8500;-21.5400;-3.3100
1277.2570;-25.3300;-21.4500;-3.8800
1277.4560;-25.8800;-21.3500;-4.5300
1277.6550;-26.5300;-21.2400;-5.2900
1277.8540;-27.3000;-21.1600;-6.1400
1278.0530;-28.1600;-21.0500;-7.1100
1278.2520;-29.3800;-20.9600;-8.4200
1278.4510;-30.2600;-20.8700;-9.3900
1278.6500;-31.3900;-20.7700;-10.6200
1278.8500;-32.3700;-20.7000;-11.6700
1279.0490;-32.9500;-20.6000;-12.3500
1279.2480;-32.8600;-20.5200;-12.3400
1279.4470;-32.0900;-20.4400;-11.6500
1279.6460;-30.9400;-20.3500;-10.5900
1279.8450;-29.6300;-20.2800;-9.3500
1280.0440;-28.3600;-20.1900;-8.1700
1280.2430;-27.1900;-20.1300;-7.0600
1280.4430;-26.1300;-20.0400;-6.0900
1280.6420;-25.0600;-19.9700;-5.0900
1280.8410;-24.3800;-19.9000;-4.4800
1281.0400;-23.6700;-19.8200;-3.8500
1281.2390;-23.0200;-19.7500;-3.2700
1281.4380;-22.4700;-19.6700;-2.8000
1281.6370;-22.0000;-19.6000;-2.4000
1281.8360;-21.5900;-19.5300;-2.0600
1282.0350;-21.2600;-19.4500;-1.8100
1282.2350;-20.9700;-19.3900;-1.5800
1282.4340;-20.7600;-19.3000;-1.4600
1282.6330;-20.6100;-19.2400;-1.3700
1282.8320;-20.5000;-19.1700;-1.3300
1283.0310;-20.4600;-19.0900;-1.3700
1283.2300;-20.4400;-19.0200;-1.4200
1283.4290;-20.5000;-18.9400;-1.5600
1283.6280;-20.5900;-18.8700;-1.7200
1283.8270;-20.7300;-18.8000;-1.9300
1284.0270;-20.9200;-18.7200;-2.2000
1284.2260;-21.1300;-18.6600;-2.4700
1284.4250;-21.3900;-18.5800;-2.8100
1284.6240;-21.6600;-18.5100;-3.1500
1284.8230;-21.9500;-18.4300;-3.5200
1285.0220;-22.2400;-18.3600;-3.8800
1285.2210;-22.5100;-18.3000;-4.2100
1285.4200;-22.7400;-18.2200;-4.5200
1285.6200;-22.9000;-18.1600;-4.7400
1285.8190;-22.9900;-18.1000;-4.8900
1286.0180;-22.9900;-18.0300;-4.9600
1286.2170;-22.8700;-17.9800;-4.8900
1286.4160;-22.6700;-17.9100;-4.7600
1286.6150;-22.3900;-17.8800;-4.5100
1286.8140;-22.0300;-17.8200;-4.2100
1287.0130;-21.6500;-17.7600;-3.8900
1287.2120;-21.2400;-17.7200;-3.5200
1287.4120;-20.8400;-17.6600;-3.1800
1287.6110;-20.4300;-17.6300;-2.8000
1287.8100;-20.0600;-17.5700;-2.4900
1288.0090;-19.7200;-17.5200;-2.2000
1288.2080;-19.4000;-17.4800;-1.9200
1288.4070;-19.1400;-17.4300;-1.7100
1288.6060;-18.9000;-17.4000;-1.5000
1288.8050;-18.7100;-17.3400;-1.3700
1289.0040;-18.5600;-17.3000;-1.2600
1289.2040;-18.4400;-17.2500;-1.1900
1289.4030;-18.3800;-17.1900;-1.1900
1289.6020;-18.3300;-17.1600;-1.1700
1289.8010;-18.3300;-17.0900;-1.2400
1290.0000;-18.3600;-17.0400;-1.3200
1290.1990;-18.4200;-16.9900;-1.4300
1290.3980;-18.5100;-16.9300;-1.5800
1290.5970;-18.6200;-16.8900;-1.7300
1290.7970;-18.7500;-16.8200;-1.9300
1290.9960;-18.8700;-16.7600;-2.1100
1291.1950;-19.0000;-16.7000;-2.3000
1291.3940;-19.1300;-16.6400;-2.4900
1291.5930;-19.2200;-16.5800;-2.6400
1291.7920;-19.3100;-16.5200;-2.7900
1291.9910;-19.3500;-16.4800;-2.8700
1292.1900;-19.3600;-16.4200;-2.9400
1292.3890;-19.3400;-16.3800;-2.9600
1292.5890;-19.2500;-16.3300;-2.9200
1292.7880;-19.1500;-16.2800;-2.8700
1292.9870;-19.0000;-16.2500;-2.7500
1293.1860;-18.8300;-16.2100;-2.6200
1293.3850;-18.6600;-16.1800;-2.4800
1293.5840;-18.4700;-16.1400;-2.3300
1293.7830;-18.3000;-16.1200;-2.1800
1293.9820;-18.1200;-16.0900;-2.0300
1294.1810;-17.9700;-16.0700;-1.9000
1294.3810;-17.8400;-16.0600;-1.7800
1294.5800;-17.7300;-16.0200;-1.7100
1294.7790;-17.6700;-16.0100;-1.6600
1294.9780;-17.6300;-15.9800;-1.6500
1295.1770;-17.6400;-15.9600;-1.6800
1295.3760;-17.6800;-15.9400;-1.7400
1295.5750;-17.7600;-15.9000;-1.8600
1295.7740;-17.9100;-15.8900;-2.0200
1295.9740;-18.0700;-15.8400;-2.2300
1296.1730;-18.3100;-15.8200;-2.4900
1296.3720;-18.5800;-15.7900;-2.7900
1296.5710;-18.9000;-15.7400;-3.1600
1296.7700;-19.2800;-15.7200;-3.5600
1296.9690;-19.7000;-15.6800;-4.0200
1297.1680;-20.1800;-15.6500;-4.5300
1297.3670;-20.6600;-15.6100;-5.0500
1297.5660;-21.1700;-15.5600;-5.6100
1297.7660;-21.6800;-15.5400;-6.1400
1297.9650;-22.1300;-15.4900;-6.6400
1298.1640;-22.5300;-15.4600;-7.0700
1298.3630;-22.7700;-15.4300;-7.3400
1298.5620;-22.8600;-15.3800;-7.4800
1298.7610;-22.7400;-15.3600;-7.3800
1298.9600;-22.4700;-15.3300;-7.1400
1299.1590;-22.0600;-15.3200;-6.7400
1299.3580;-21.5400;-15.2900;-6.2500
1299.5580;-20.9900;-15.2600;-5.7300
1299.7570;-20.4000;-15.2500;-5.1500
1299.9560;-19.8400;-15.2400;-4.6000
1300.1550;-19.3200;-15.2400;-4.0800
1300.3540;-18.8300;-15.2200;-3.6100
1300.5530;-18.3900;-15.2100;-3.1800
1300.7520;-17.9900;-15.2100;-2.7800
1300.9510;-17.6600;-15.2000;-2.4600
1301.1500;-17.3800;-15.2200;-2.1600
1301.3500;-17.1400;-15.2100;-1.9300
1301.5490;-16.9900;-15.2200;-1.7700
1301.7480;-16.8600;-15.2200;-1.6400
1301.9470;-16.8000;-15.2200;-1.5800
1302.1460;-16.7800;-15.2400;-1.5400
1302.3450;-16.8200;-15.2300;-1.5900
1302.5440;-16.9400;-15.2500;-1.6900
1302.7430;-17.0900;-15.2400;-1.8500
1302.9430;-17.3200;-15.2400;-2.0800
1303.1420;-17.6000;-15.2600;-2.3400
1303.3410;-17.9400;-15.2500;-2.6900
1303.5400;-18.3700;-15.2700;-3.1000
1303.7390;-18.8600;-15.2500;-3.6100
1303.9380;-19.4400;-15.2600;-4.1800
1304.1370;-20.1000;-15.2700;-4.8300
1304.3360;-20.8700;-15.2700;-5.6000
1304.5350;-21.7400;-15.2800;-6.4600
1304.7350;-22.7100;-15.2700;-7.4400
1304.9340;-23.7900;-15.2800;-8.5100
1305.1330;-24.9400;-15.2800;-9.6600
1305.3320;-26.0800;-15.2800;-10.8000
1305.5310;-27.0400;-15.3100;-11.7300
1305.7300;-27.5900;-15.3000;-12.2900
1305.9290;-27.5200;-15.3100;-12.2100
1306.1280;-26.8700;-15.3200;-11.5500
1306.3270;-25.8700;-15.3300;-10.5400
1306.5270;-24.7500;-15.3600;-9.3900
1306.7260;-23.6500;-15.3700;-8.2800
1306.9250;-22.6400;-15.3900;-7.2500
1307.1240;-21.7300;-15.4000;-6.3300
1307.3230;-20.9300;-15.4200;-5.5100
1307.5220;-20.2200;-15.4600;-4.7600
1307.7210;-19.6000;-15.4700;-4.1300
1307.9200;-19.0700;-15.4900;-3.5800
1308.1200;-18.6200;-15.5200;-3.1000
1308.3190;-18.2500;-15.5400;-2.7100
1308.5180;-17.9300;-15.5700;-2.3600
1308.7170;-17.6700;-15.5900;-2.0800
1308.9160;-17.4500;-15.6200;-1.8300
1309.1150;-17.3100;-15.6400;-1.6700
1309.3140;-17.2100;-15.6700;-1.5400
1309.5130;-17.1600;-15.7000;-1.4600
1309.7120;-17.1600;-15.7100;-1.4500
1309.9120;-17.1800;-15.7500;-1.4300
