Wavelength;Intensity_Meas;Intensity_Ref;Difference_dB
1200.0000;-62.1700;-57.0700;-5.1000
1200.1990;-62.1300;-57.0400;-5.0900
1200.3980;-62.0300;-57.0000;-5.0300
1200.5970;-61.9600;-56.9900;-4.9700
1200.7970;-61.9000;-56.9700;-4.9300
1200.9960;-61.8900;-56.9200;-4.9700
1201.1950;-61.8500;-56.8900;-4.9600
1201.3940;-61.7800;-56.8600;-4.9200
1201.5930;-61.7000;-56.8100;-4.8900
1201.7920;-61.7000;-56.7700;-4.9300
1201.9910;-61.6900;-56.7100;-4.9800
1202.1900;-61.6000;-56.6600;-4.9400
1202.3890;-61.5500;-56.6200;-4.9300
1202.5890;-61.5600;-56.5700;-4.9900
1202.7880;-61.5700;-56.5200;-5.0500
1202.9870;-61.5700;-56.4600;-5.1100
1203.1860;-61.5000;-56.4100;-5.0900
1203.3850;-61.4600;-56.3700;-5.0900
1203.5840;-61.5100;-56.3200;-5.1900
1203.7830;-61.5200;-56.2800;-5.2400
1203.9820;-61.4300;-56.2400;-5.1900
1204.1810;-61.4000;-56.1900;-5.2100
1204.3810;-61.4300;-56.1700;-5.2600
1204.5800;-61.4600;-56.1300;-5.3300
1204.7790;-61.3700;-56.0900;-5.2800
1204.9780;-61.3500;-56.0600;-5.2900
1205.1770;-61.3400;-56.0400;-5.3000
1205.3760;-61.3400;-56.0100;-5.3300
1205.5750;-61.3400;-55.9900;-5.3500
1205.7740;-61.2700;-55.9800;-5.2900
1205.9740;-61.2700;-55.9500;-5.3200
1206.1730;-61.2700;-55.9400;-5.3300
1206.3720;-61.2200;-55.9300;-5.2900
1206.5710;-61.1500;-55.9100;-5.2400
1206.7700;-61.0800;-55.8800;-5.2000
1206.9690;-61.0900;-55.8600;-5.2300
1207.1680;-61.0100;-55.8300;-5.1800
1207.3670;-60.9200;-55.8100;-5.1100
1207.5660;-60.8400;-55.7800;-5.0600
1207.7660;-60.8000;-55.7500;-5.0500
1207.9650;-60.7300;-55.7100;-5.0200
1208.1640;-60.6200;-55.6800;-4.9400
1208.3630;-60.5100;-55.6600;-4.8500
1208.5620;-60.4900;-55.6000;-4.8900
1208.7610;-60.4600;-55.5600;-4.9000
1208.9600;-60.4200;-55.5100;-4.9100
1209.1590;-60.3300;-55.4500;-4.8800
1209.3580;-60.2900;-55.4100;-4.8800
1209.5580;-60.3300;-55.3600;-4.9700
1209.7570;-60.2800;-55.3100;-4.9700
1209.9560;-60.2400;-55.2600;-4.9800
1210.1550;-60.2300;-55.2100;-5.0200
1210.3540;-60.2500;-55.1800;-5.0700
1210.5530;-60.2700;-55.1100;-5.1600
1210.7520;-60.2500;-55.0700;-5.1800
1210.9510;-60.2300;-55.0300;-5.2000
1211.1500;-60.2600;-54.9800;-5.2800
1211.3500;-60.3000;-54.9500;-5.3500
1211.5490;-60.3100;-54.9100;-5.4000
1211.7480;-60.2600;-54.8700;-5.3900
1211.9470;-60.2900;-54.8400;-5.4500
1212.1460;-60.3100;-54.8100;-5.5000
1212.3450;-60.3000;-54.7800;-5.5200
1212.5440;-60.3100;-54.7600;-5.5500
1212.7430;-60.2700;-54.7400;-5.5300
1212.9430;-60.2800;-54.7100;-5.5700
1213.1420;-60.2700;-54.6700;-5.6000
1213.3410;-60.2100;-54.6500;-5.5600
1213.5400;-60.1400;-54.6200;-5.5200
1213.7390;-60.1200;-54.6000;-5.5200
1213.9380;-60.0500;-54.5600;-5.4900
1214.1370;-59.9500;-54.5300;-5.4200
1214.3360;-59.8400;-54.5100;-5.3300
1214.5350;-59.8200;-54.4600;-5.3600
1214.7350;-59.7300;-54.4300;-5.3000
1214.9340;-59.6200;-54.3900;-5.2300
1215.1330;-59.5300;-54.3400;-5.1900
1215.3320;-59.4600;-54.3000;-5.1600
1215.5310;-59.4300;-54.2500;-5.1800
1215.7300;-59.3300;-54.2000;-5.1300
1215.9290;-59.2800;-54.1500;-5.1300
1216.1280;-59.2500;-54.1000;-5.1500
1216.3270;-59.2100;-54.0400;-5.1700
1216.5270;-59.2000;-53.9900;-5.2100
1216.7260;-59.1400;-53.9300;-5.2100
1216.9250;-59.1200;-53.8800;-5.2400
1217.1240;-59.1100;-53.8100;-5.3000
1217.3230;-59.0800;-53.7700;-5.3100
1217.5220;-59.0800;-53.7200;-5.3600
1217.7210;-59.0500;-53.6700;-5.3800
1217.9200;-59.0500;-53.6200;-5.4300
1218.1200;-59.0500;-53.5700;-5.4800
1218.3190;-59.0100;-53.5300;-5.4800
1218.5180;-59.0200;-53.4800;-5.5400
1218.7170;-59.0200;-53.4500;-5.5700
1218.9160;-59.0300;-53.4100;-5.6200
1219.1150;-59.0100;-53.3600;-5.6500
1219.3140;-58.9700;-53.3500;-5.6200
1219.5130;-58.9900;-53.3200;-5.6700
1219.7120;-58.9600;-53.2800;-5.6800
1219.9120;-58.9200;-53.2400;-5.6800
1220.1110;-58.8500;-53.2100;-5.6400
1220.3100;-58.8000;-53.1800;-5.6200
1220.5090;-58.7600;-53.1400;-5.6200
1220.7080;-58.6600;-53.1100;-5.5500
1220.9070;-58.5700;-53.0700;-5.5000
1221.1060;-58.4800;-53.0200;-5.4600
1221.3050;-58.3900;-52.9800;-5.4100
1221.5040;-58.2900;-52.9100;-5.3800
1221.7040;-58.1800;-52.8700;-5.3100
1221.9030;-58.1200;-52.8100;-5.3100
1222.1020;-58.0400;-52.7400;-5.3000
1222.3010;-57.9700;-52.7000;-5.2700
1222.5000;-57.9000;-52.6200;-5.2800
1222.6990;-57.8400;-52.5600;-5.2800
1222.8980;-57.8300;-52.4900;-5.3400
1223.0970;-57.8100;-52.4200;-5.3900
1223.2970;-57.7600;-52.3700;-5.3900
1223.4960;-57.7700;-52.2800;-5.4900
1223.6950;-57.7500;-52.2200;-5.5300
1223.8940;-57.7400;-52.1600;-5.5800
1224.0930;-57.7200;-52.0800;-5.6400
1224.2920;-57.6900;-52.0300;-5.6600
1224.4910;-57.6700;-51.9500;-5.7200
1224.6900;-57.6200;-51.8900;-5.7300
1224.8890;-57.5600;-51.8300;-5.7300
1225.0890;-57.4900;-51.7700;-5.7200
1225.2880;-57.4100;-51.7200;-5.6900
1225.4870;-57.3500;-51.6500;-5.7000
1225.6860;-57.2200;-51.6100;-5.6100
1225.8850;-57.1200;-51.5600;-5.5600
1226.0840;-57.0000;-51.5000;-5.5000
1226.2830;-56.8800;-51.4700;-5.4100
1226.4820;-56.7300;-51.4000;-5.3300
1226.6810;-56.5800;-51.3600;-5.2200
1226.8810;-56.4500;-51.3100;-5.1400
1227.0800;-56.2900;-51.2500;-5.0400
1227.2790;-56.1300;-51.2200;-4.9100
1227.4780;-55.9900;-51.1500;-4.8400
1227.6770;-55.8300;-51.1000;-4.7300
1227.8760;-55.6700;-51.0500;-4.6200
1228.0750;-55.5300;-50.9800;-4.5500
1228.2740;-55.4100;-50.9300;-4.4800
1228.4740;-55.3300;-50.8500;-4.4800
1228.6730;-55.2300;-50.7900;-4.4400
1228.8720;-55.1700;-50.7300;-4.4400
1229.0710;-55.1100;-50.6500;-4.4600
1229.2700;-55.1000;-50.5900;-4.5100
1229.4690;-55.1000;-50.5000;-4.6000
1229.6680;-55.1000;-50.4300;-4.6700
1229.8670;-55.1300;-50.3500;-4.7800
1230.0660;-55.2000;-50.2700;-4.9300
1230.2660;-55.2500;-50.2100;-5.0400
1230.4650;-55.3200;-50.1100;-5.2100
1230.6640;-55.4000;-50.0300;-5.3700
1230.8630;-55.5000;-49.9800;-5.5200
1231.0620;-55.5900;-49.9000;-5.6900
1231.2610;-55.6600;-49.8500;-5.8100
1231.4600;-55.7600;-49.7900;-5.9700
1231.6590;-55.7900;-49.7200;-6.0700
1231.8580;-55.8100;-49.6600;-6.1500
1232.0580;-55.8100;-49.6000;-6.2100
1232.2570;-55.7700;-49.5500;-6.2200
1232.4560;-55.7500;-49.4900;-6.2600
1232.6550;-55.6400;-49.4400;-6.2000
1232.8540;-55.5100;-49.3700;-6.1400
1233.0530;-55.3700;-49.3200;-6.0500
1233.2520;-55.2000;-49.2800;-5.9200
1233.4510;-55.0100;-49.2100;-5.8000
1233.6500;-54.8100;-49.1700;-5.6400
1233.8500;-54.6100;-49.1000;-5.5100
1234.0490;-54.4000;-49.0400;-5.3600
1234.2480;-54.1900;-48.9800;-5.2100
1234.4470;-54.0100;-48.9000;-5.1100
1234.6460;-53.8300;-48.8500;-4.9800
1234.8450;-53.6900;-48.7800;-4.9100
1235.0440;-53.5400;-48.7000;-4.8400
1235.2430;-53.4200;-48.6300;-4.7900
1235.4430;-53.3500;-48.5400;-4.8100
1235.6420;-53.2900;-48.4800;-4.8100
1235.8410;-53.2400;-48.3800;-4.8600
1236.0400;-53.2300;-48.3000;-4.9300
1236.2390;-53.2300;-48.2100;-5.0200
1236.4380;-53.2600;-48.1100;-5.1500
1236.6370;-53.3000;-48.0400;-5.2600
1236.8360;-53.3500;-47.9400;-5.4100
1237.0350;-53.4100;-47.8600;-5.5500
1237.2350;-53.4600;-47.7700;-5.6900
1237.4340;-53.5100;-47.6800;-5.8300
1237.6330;-53.5500;-47.6100;-5.9400
1237.8320;-53.6100;-47.5200;-6.0900
1238.0310;-53.6100;-47.4400;-6.1700
1238.2300;-53.6000;-47.3600;-6.2400
1238.4290;-53.5800;-47.2700;-6.3100
1238.6280;-53.5500;-47.2100;-6.3400
1238.8270;-53.4800;-47.1200;-6.3600
1239.0270;-53.3900;-47.0600;-6.3300
1239.2260;-53.2800;-46.9600;-6.3200
1239.4250;-53.1700;-46.8800;-6.2900
1239.6240;-53.0300;-46.8100;-6.2200
1239.8230;-52.8900;-46.7200;-6.1700
1240.0220;-52.7400;-46.6500;-6.0900
1240.2210;-52.5800;-46.5400;-6.0400
1240.4200;-52.4200;-46.4500;-5.9700
1240.6200;-52.2700;-46.3700;-5.9000
1240.8190;-52.1400;-46.2600;-5.8800
1241.0180;-51.9700;-46.1600;-5.8100
1241.2170;-51.8400;-46.0400;-5.8000
1241.4160;-51.7400;-45.9100;-5.8300
1241.6150;-51.6200;-45.8000;-5.8200
1241.8140;-51.5400;-45.6900;-5.8500
1242.0130;-51.4500;-45.5700;-5.8800
1242.2120;-51.3900;-45.4400;-5.9500
1242.4120;-51.3300;-45.3300;-6.0000
1242.6110;-51.2500;-45.1800;-6.0700
1242.8100;-51.1900;-45.0600;-6.1300
1243.0090;-51.0900;-44.9200;-6.1700
1243.2080;-50.9800;-44.8000;-6.1800
1243.4070;-50.8500;-44.6800;-6.1700
1243.6060;-50.6700;-44.5300;-6.1400
1243.8050;-50.5000;-44.4100;-6.0900
1244.0040;-50.2600;-44.2800;-5.9800
1244.2040;-50.0100;-44.1500;-5.8600
1244.4030;-49.7500;-44.0300;-5.7200
1244.6020;-49.4700;-43.8800;-5.5900
1244.8010;-49.2000;-43.7600;-5.4400
1245.0000;-48.9200;-43.6400;-5.2800
1245.1990;-48.6600;-43.5100;-5.1500
1245.3980;-48.4100;-43.4000;-5.0100
1245.5970;-48.1700;-43.2500;-4.9200
1245.7970;-47.9800;-43.1300;-4.8500
1245.9960;-47.7800;-42.9900;-4.7900
1246.1950;-47.6200;-42.8500;-4.7700
1246.3940;-47.4900;-42.7300;-4.7600
1246.5930;-47.3800;-42.5700;-4.8100
1246.7920;-47.3200;-42.4300;-4.8900
1246.9910;-47.2500;-42.2800;-4.9700
1247.1900;-47.2400;-42.1200;-5.1200
1247.3890;-47.2500;-41.9800;-5.2700
1247.5890;-47.2700;-41.8100;-5.4600
1247.7880;-47.3300;-41.6600;-5.6700
1247.9870;-47.3800;-41.4900;-5.8900
1248.1860;-47.4700;-41.3300;-6.1400
1248.3850;-47.5500;-41.1800;-6.3700
1248.5840;-47.6100;-41.0000;-6.6100
1248.7830;-47.6700;-40.8400;-6.8300
1248.9820;-47.6600;-40.6800;-6.9800
1249.1810;-47.6200;-40.5200;-7.1000
1249.3810;-47.4900;-40.3600;-7.1300
1249.5800;-47.2900;-40.1800;-7.1100
1249.7790;-47.0400;-40.0300;-7.0100
1249.9780;-46.6800;-39.8600;-6.8200
1250.1770;-46.3000;-39.7000;-6.6000
1250.3760;-45.8700;-39.5600;-6.3100
1250.5750;-45.3300;-39.3900;-5.9400
1250.7740;-44.9400;-39.2300;-5.7100
1250.9740;-44.4900;-39.0900;-5.4000
1251.1730;-44.0500;-38.9300;-5.1200
1251.3720;-43.6200;-38.7900;-4.8300
1251.5710;-43.2500;-38.6400;-4.6100
1251.7700;-42.8800;-38.4900;-4.3900
1251.9690;-42.5500;-38.3300;-4.2200
1252.1680;-42.2600;-38.1700;-4.0900
1252.3670;-42.0000;-38.0300;-3.9700
1252.5660;-41.7900;-37.8700;-3.9200
1252.7660;-41.5800;-37.7100;-3.8700
1252.9650;-41.4400;-37.5600;-3.8800
1253.1640;-41.3100;-37.3900;-3.9200
1253.3630;-41.2100;-37.2400;-3.9700
1253.5620;-41.1700;-37.0800;-4.0900
1253.7610;-41.1200;-36.9200;-4.2000
1253.9600;-41.1200;-36.7600;-4.3600
1254.1590;-41.1300;-36.5900;-4.5400
1254.3580;-41.1600;-36.4400;-4.7200
1254.5580;-41.2100;-36.2700;-4.9400
1254.7570;-41.2200;-36.1200;-5.1000
1254.9560;-41.2200;-35.9500;-5.2700
1255.1550;-41.1900;-35.7800;-5.4100
1255.3540;-41.0900;-35.6400;-5.4500
1255.5530;-40.9600;-35.4900;-5.4700
1255.7520;-40.7200;-35.3400;-5.3800
1255.9510;-40.4300;-35.1700;-5.2600
1256.1500;-40.0800;-35.0400;-5.0400
1256.3500;-39.6700;-34.8700;-4.8000
1256.5490;-39.2600;-34.7200;-4.5400
1256.7480;-38.8000;-34.5700;-4.2300
1256.9470;-38.3500;-34.4200;-3.9300
1257.1460;-37.9100;-34.2700;-3.6400
1257.3450;-37.5000;-34.1000;-3.4000
1257.5440;-37.1400;-33.9600;-3.1800
1257.7430;-36.7800;-33.8100;-2.9700
1257.9430;-36.4700;-33.6500;-2.8200
1258.1420;-36.1900;-33.5100;-2.6800
1258.3410;-35.9200;-33.3400;-2.5800
1258.5400;-35.7800;-33.1900;-2.5900
1258.7390;-35.6300;-33.0300;-2.6000
1258.9380;-35.5400;-32.8700;-2.6700
1259.1370;-35.4800;-32.7300;-2.7500
1259.3360;-35.4800;-32.5600;-2.9200
1259.5350;-35.5300;-32.4200;-3.1100
1259.7350;-35.6300;-32.2700;-3.3600
1259.9340;-35.8000;-32.1100;-3.6900
1260.1330;-36.0300;-31.9700;-4.0600
1260.3320;-36.3300;-31.8100;-4.5200
1260.5310;-36.7200;-31.6800;-5.0400
1260.7300;-37.1700;-31.5300;-5.6400
1260.9290;-37.7200;-31.3800;-6.3400
1261.1280;-38.4500;-31.2500;-7.2000
1261.3270;-39.0200;-31.0900;-7.9300
1261.5270;-39.7000;-30.9700;-8.7300
1261.7260;-40.3400;-30.8200;-9.5200
1261.9250;-40.7700;-30.6800;-10.0900
1262.1240;-40.8700;-30.5500;-10.3200
1262.3230;-40.5700;-30.4000;-10.1700
1262.5220;-39.8900;-30.2700;-9.6200
1262.7210;-38.9700;-30.1300;-8.8400
1262.9200;-37.9200;-29.9800;-7.9400
1263.1200;-36.8700;-29.8500;-7.0200
1263.3190;-35.6900;-29.6900;-6.0000
1263.5180;-34.9300;-29.5600;-5.3700
1263.7170;-34.0800;-29.4100;-4.6700
1263.9160;-33.3100;-29.2600;-4.0500
1264.1150;-32.6300;-29.1300;-3.5000
1264.3140;-32.0000;-28.9600;-3.0400
1264.5130;-31.4600;-28.8300;-2.6300
1264.7120;-30.9900;-28.6800;-2.3100
1264.9120;-30.5800;-28.5300;-2.0500
1265.1110;-30.2400;-28.3900;-1.8500
1265.3100;-29.9400;-28.2300;-1.7100
1265.5090;-29.7300;-28.1000;-1.6300
1265.7080;-29.5700;-27.9500;-1.6200
1265.9070;-29.4600;-27.8100;-1.6500
1266.1060;-29.4300;-27.6800;-1.7500
1266.3050;-29.4500;-27.5400;-1.9100
1266.5040;-29.5600;-27.4200;-2.1400
1266.7040;-29.7400;-27.2900;-2.4500
1266.9030;-29.9800;-27.1600;-2.8200
1267.1020;-30.3300;-27.0400;-3.2900
1267.3010;-30.7500;-26.9100;-3.8400
1267.5000;-31.2900;-26.8000;-4.4900
1267.6990;-31.9500;-26.6800;-5.2700
1267.8980;-32.7100;-26.5600;-6.1500
1268.0970;-33.6600;-26.4600;-7.2000
1268.2970;-34.7400;-26.3300;-8.4100
1268.4960;-36.0300;-26.2300;-9.8000
1268.6950;-37.4800;-26.0800;-11.4000
1268.8940;-39.3800;-25.9900;-13.3900
1269.0930;-40.4400;-25.8800;-14.5600
1269.2920;-41.0200;-25.7500;-15.2700
1269.4910;-40.4700;-25.6500;-14.8200
1269.6900;-39.0400;-25.5100;-13.5300
1269.8890;-37.4000;-25.3900;-12.0100
1270.0890;-35.5900;-25.2600;-10.3300
1270.2880;-34.4200;-25.1300;-9.2900
1270.4870;-33.2200;-25.0300;-8.1900
1270.6860;-32.1600;-24.8900;-7.2700
1270.8850;-31.2500;-24.7600;-6.4900
1271.0840;-30.4500;-24.6300;-5.8200
1271.2830;-29.7700;-24.5100;-5.2600
1271.4820;-29.2000;-24.3900;-4.8100
1271.6810;-28.7100;-24.2600;-4.4500
1271.8810;-28.3300;-24.1500;-4.1800
1272.0800;-28.0200;-24.0300;-3.9900
1272.2790;-27.8000;-23.9100;-3.8900
1272.4780;-27.6500;-23.8200;-3.8300
1272.6770;-27.5700;-23.7000;-3.8700
1272.8760;-27.5800;-23.6100;-3.9700
1273.0750;-27.6300;-23.5000;-4.1300
1273.2740;-27.7700;-23.4000;-4.3700
1273.4740;-27.9500;-23.3200;-4.6300
1273.6730;-28.1900;-23.2100;-4.9800
1273.8720;-28.4800;-23.1300;-5.3500
1274.0710;-28.7800;-23.0300;-5.7500
1274.2700;-29.1000;-22.9300;-6.1700
1274.4690;-29.3700;-22.8500;-6.5200
1274.6680;-29.5900;-22.7500;-6.8400
1274.8670;-29.7300;-22.6600;-7.0700
1275.0660;-29.7100;-22.5600;-7.1500
1275.2660;-29.5800;-22.4700;-7.1100
1275.4650;-29.2800;-22.3800;-6.9000
1275.6640;-28.8700;-22.2700;-6.6000
1275.8630;-28.3700;-22.1800;-6.1900
1276.0620;-27.8100;-22.0700;-5.7400
1276.2610;-27.2300;-21.9700;-5.2600
1276.4600;-26.6200;-21.8700;-4.7500
1276.6590;-25.9600;-21.7500;-4.2100
1276.8580;-25.5000;-21.6600;-3.8400
1277.0580;-25.0000;-21.5400;-3.4600
1277.2570;-24.5300;-21.4500;-3.0800
1277.4560;-24.1100;-21.3500;-2.7600
1277.6550;-23.7600;-21.2400;-2.5200
1277.8540;-23.4300;-21.1600;-2.2700
1278.0530;-23.1800;-21.0500;-2.1300
1278.2520;-22.9700;-20.9600;-2.0100
1278.4510;-22.8100;-20.8700;-1.9400
1278.6500;-22.7200;-20.7700;-1.9500
1278.8500;-22.6700;-20.7000;-1.9700
1279.0490;-22.7000;-20.6000;-2.1000
1279.2480;-22.7700;-20.5200;-2.2500
1279.4470;-22.9000;-20.4400;-2.4600
1279.6460;-23.1100;-20.3500;-2.7600
1279.8450;-23.3500;-20.2800;-3.0700
1280.0440;-23.6600;-20.1900;-3.4700
1280.2430;-24.0200;-20.1300;-3.8900
1280.4430;-24.4300;-20.0400;-4.3900
1280.6420;-24.8900;-19.9700;-4.9200
1280.8410;-25.3600;-19.9000;-5.4600
1281.0400;-25.8500;-19.8200;-6.0300
1281.2390;-26.2900;-19.7500;-6.5400
1281.4380;-26.6700;-19.6700;-7.0000
1281.6370;-26.9200;-19.6000;-7.3200
1281.8360;-26.9900;-19.5300;-7.4600
1282.0350;-26.8700;-19.4500;-7.4200
1282.2350;-26.5200;-19.3900;-7.1300
1282.4340;-26.0300;-19.3000;-6.7300
1282.6330;-25.4300;-19.2400;-6.1900
1282.8320;-24.7600;-19.1700;-5.5900
1283.0310;-24.1100;-19.0900;-5.0200
1283.2300;-23.4300;-19.0200;-4.4100
1283.4290;-22.8200;-18.9400;-3.8800
1283.6280;-22.2400;-18.8700;-3.3700
1283.8270;-21.7100;-18.8000;-2.9100
1284.0270;-21.2600;-18.7200;-2.5400
1284.2260;-20.8500;-18.6600;-2.1900
1284.4250;-20.5200;-18.5800;-1.9400
1284.6240;-20.2400;-18.5100;-1.7300
1284.8230;-20.0200;-18.4300;-1.5900
1285.0220;-19.8800;-18.3600;-1.5200
1285.2210;-19.7800;-18.3000;-1.4800
1285.4200;-19.7600;-18.2200;-1.5400
1285.6200;-19.7800;-18.1600;-1.6200
1285.8190;-19.8800;-18.1000;-1.7800
1286.0180;-20.0600;-18.0300;-2.0300
1286.2170;-20.2900;-17.9800;-2.3100
1286.4160;-20.6200;-17.9100;-2.7100
1286.6150;-21.0200;-17.8800;-3.1400
1286.8140;-21.5000;-17.8200;-3.6800
1287.0130;-22.0800;-17.7600;-4.3200
1287.2120;-22.7500;-17.7200;-5.0300
1287.4120;-23.5400;-17.6600;-5.8800
1287.6110;-24.4100;-17.6300;-6.7800
1287.8100;-25.3700;-17.5700;-7.8000
1288.0090;-26.3800;-17.5200;-8.8600
1288.2080;-27.3100;-17.4800;-9.8300
1288.4070;-28.0000;-17.4300;-10.5700
1288.6060;-28.2500;-17.4000;-10.8500
1288.8050;-27.9000;-17.3400;-10.5600
1289.0040;-27.0900;-17.3000;-9.7900
1289.2040;-25.8800;-17.2500;-8.6300
1289.4030;-24.9500;-17.1900;-7.7600
1289.6020;-23.8900;-17.1600;-6.7300
1289.8010;-22.9300;-17.0900;-5.8400
1290.0000;-22.0400;-17.0400;-5.0000
1290.1990;-21.2900;-16.9900;-4.3000
1290.3980;-20.6200;-16.9300;-3.6900
1290.5970;-20.0400;-16.8900;-3.1500
1290.7970;-19.5500;-16.8200;-2.7300
1290.9960;-19.1200;-16.7600;-2.3600
1291.1950;-18.8100;-16.7000;-2.1100
1291.3940;-18.5400;-16.6400;-1.9000
1291.5930;-18.3500;-16.5800;-1.7700
1291.7920;-18.2500;-16.5200;-1.7300
1291.9910;-18.2000;-16.4800;-1.7200
1292.1900;-18.2500;-16.4200;-1.8300
1292.3890;-18.3500;-16.3800;-1.9700
1292.5890;-18.5200;-16.3300;-2.1900
1292.7880;-18.7800;-16.2800;-2.5000
1292.9870;-19.1100;-16.2500;-2.8600
1293.1860;-19.5500;-16.2100;-3.3400
1293.3850;-20.0600;-16.1800;-3.8800
1293.5840;-20.6800;-16.1400;-4.5400
1293.7830;-21.4200;-16.1200;-5.3000
1293.9820;-22.2800;-16.0900;-6.1900
1294.1810;-23.2900;-16.0700;-7.2200
1294.3810;-24.4100;-16.0600;-8.3500
1294.5800;-25.6700;-16.0200;-9.6500
1294.7790;-26.9400;-16.0100;-10.9300
1294.9780;-28.0400;-15.9800;-12.0600
1295.1770;-28.7000;-15.9600;-12.7400
1295.3760;-28.3500;-15.9400;-12.4100
1295.5750;-27.3700;-15.9000;-11.4700
1295.7740;-25.8500;-15.8900;-9.9600
1295.9740;-24.7200;-15.8400;-8.8800
1296.1730;-23.4700;-15.8200;-7.6500
1296.3720;-22.3600;-15.7900;-6.5700
1296.5710;-21.3600;-15.7400;-5.6200
1296.7700;-20.5000;-15.7200;-4.7800
1296.9690;-19.7600;-15.6800;-4.0800
1297.1680;-19.1100;-15.6500;-3.4600
1297.3670;-18.5800;-15.6100;-2.9700
1297.5660;-18.0900;-15.5600;-2.5300
1297.7660;-17.7100;-15.5400;-2.1700
1297.9650;-17.3800;-15.4900;-1.8900
1298.1640;-17.1300;-15.4600;-1.6700
1298.3630;-16.9500;-15.4300;-1.5200
1298.5620;-16.7900;-15.3800;-1.4100
1298.7610;-16.7300;-15.3600;-1.3700
1298.9600;-16.7000;-15.3300;-1.3700
1299.1590;-16.7300;-15.3200;-1.4100
1299.3580;-16.8100;-15.2900;-1.5200
1299.5580;-16.9200;-15.2600;-1.6600
1299.7570;-17.0900;-15.2500;-1.8400
1299.9560;-17.2900;-15.2400;-2.0500
1300.1550;-17.5400;-15.2400;-2.3000
1300.3540;-17.8200;-15.2200;-2.6000
1300.5530;-18.1000;-15.2100;-2.8900
1300.7520;-18.4200;-15.2100;-3.2100
1300.9510;-18.7200;-15.2000;-3.5200
1301.1500;-19.0300;-15.2200;-3.8100
1301.3500;-19.2900;-15.2100;-4.0800
1301.5490;-19.5200;-15.2200;-4.3000
1301.7480;-19.6800;-15.2200;-4.4600
1301.9470;-19.7500;-15.2200;-4.5300
1302.1460;-19.7800;-15.2400;-4.5400
1302.3450;-19.7100;-15.2300;-4.4800
1302.5440;-19.5800;-15.2500;-4.3300
1302.7430;-19.4100;-15.2400;-4.1700
1302.9430;-19.1800;-15.2400;-3.9400
1303.1420;-18.9700;-15.2600;-3.7100
1303.3410;-18.7200;-15.2500;-3.4700
1303.5400;-18.5000;-15.2700;-3.2300
1303.7390;-18.3000;-15.2500;-3.0500
1303.9380;-18.1200;-15.2600;-2.8600
1304.1370;-18.0000;-15.2700;-2.7300
1304.3360;-17.8900;-15.2700;-2.6200
1304.5350;-17.8500;-15.2800;-2.5700
1304.7350;-17.8600;-15.2700;-2.5900
1304.9340;-17.9100;-15.2800;-2.6300
1305.1330;-18.0500;-15.2800;-2.7700
1305.3320;-18.2100;-15.2800;-2.9300
1305.5310;-18.4800;-15.3100;-3.1700
1305.7300;-18.8000;-15.3000;-3.5000
1305.9290;-19.1900;-15.3100;-3.8800
1306.1280;-19.7000;-15.3200;-4.3800
1306.3270;-20.2600;-15.3300;-4.9300
1306.5270;-20.9600;-15.3600;-5.6000
1306.7260;-21.7600;-15.3700;-6.3900
1306.9250;-22.6900;-15.3900;-7.3000
1307.1240;-23.8000;-15.4000;-8.4000
1307.3230;-25.0500;-15.4200;-9.6300
1307.5220;-26.4900;-15.4600;-11.0300
1307.7210;-28.0400;-15.4700;-12.5700
1307.9200;-29.8700;-15.4900;-14.3800
1308.1200;-30.5500;-15.5200;-15.0300
1308.3190;-30.4600;-15.5400;-14.9200
1308.5180;-29.4100;-15.5700;-13.8400
1308.7170;-27.9000;-15.5900;-12.3100
1308.9160;-26.4000;-15.6200;-10.7800
1309.1150;-24.8000;-15.6400;-9.1600
1309.3140;-23.8500;-15.6700;-8.1800
1309.5130;-22.8300;-15.7000;-7.1300
1309.7120;-21.9700;-15.7100;-6.2600
1309.9120;-21.2200;-15.7500;-5.4700
