Wavelength;Intensity_Meas;Intensity_Ref;Difference_dB
1200.0000;-62.1400;-57.0700;-5.0700
1200.1990;-62.1200;-57.0400;-5.0800
1200.3980;-62.0400;-57.0000;-5.0400
1200.5970;-61.9700;-56.9900;-4.9800
1200.7970;-61.9200;-56.9700;-4.9500
1200.9960;-61.9200;-56.9200;-5.0000
1201.1950;-61.8500;-56.8900;-4.9600
1201.3940;-61.7600;-56.8600;-4.9000
1201.5930;-61.6600;-56.8100;-4.8500
1201.7920;-61.6300;-56.7700;-4.8600
1201.9910;-61.6100;-56.7100;-4.9000
1202.1900;-61.4900;-56.6600;-4.8300
1202.3890;-61.4400;-56.6200;-4.8200
1202.5890;-61.4100;-56.5700;-4.8400
1202.7880;-61.3600;-56.5200;-4.8400
1202.9870;-61.3300;-56.4600;-4.8700
1203.1860;-61.2700;-56.4100;-4.8600
1203.3850;-61.1700;-56.3700;-4.8000
1203.5840;-61.1800;-56.3200;-4.8600
1203.7830;-61.1600;-56.2800;-4.8800
1203.9820;-61.1300;-56.2400;-4.8900
1204.1810;-61.0500;-56.1900;-4.8600
1204.3810;-61.0600;-56.1700;-4.8900
1204.5800;-61.0900;-56.1300;-4.9600
1204.7790;-61.0600;-56.0900;-4.9700
1204.9780;-61.0700;-56.0600;-5.0100
1205.1770;-61.0700;-56.0400;-5.0300
1205.3760;-61.1200;-56.0100;-5.1100
1205.5750;-61.1600;-55.9900;-5.1700
1205.7740;-61.1600;-55.9800;-5.1800
1205.9740;-61.1700;-55.9500;-5.2200
1206.1730;-61.2200;-55.9400;-5.2800
1206.3720;-61.2400;-55.9300;-5.3100
1206.5710;-61.2400;-55.9100;-5.3300
1206.7700;-61.2200;-55.8800;-5.3400
1206.9690;-61.2300;-55.8600;-5.3700
1207.1680;-61.2300;-55.8300;-5.4000
1207.3670;-61.1600;-55.8100;-5.3500
1207.5660;-61.1100;-55.7800;-5.3300
1207.7660;-61.0400;-55.7500;-5.2900
1207.9650;-61.0000;-55.7100;-5.2900
1208.1640;-60.9400;-55.6800;-5.2600
1208.3630;-60.8300;-55.6600;-5.1700
1208.5620;-60.7100;-55.6000;-5.1100
1208.7610;-60.6500;-55.5600;-5.0900
1208.9600;-60.5500;-55.5100;-5.0400
1209.1590;-60.4100;-55.4500;-4.9600
1209.3580;-60.3400;-55.4100;-4.9300
1209.5580;-60.3200;-55.3600;-4.9600
1209.7570;-60.2300;-55.3100;-4.9200
1209.9560;-60.1400;-55.2600;-4.8800
1210.1550;-60.0800;-55.2100;-4.8700
1210.3540;-60.0300;-55.1800;-4.8500
1210.5530;-60.0000;-55.1100;-4.8900
1210.7520;-59.9600;-55.0700;-4.8900
1210.9510;-59.8800;-55.0300;-4.8500
1211.1500;-59.8600;-54.9800;-4.8800
1211.3500;-59.8800;-54.9500;-4.9300
1211.5490;-59.8900;-54.9100;-4.9800
1211.7480;-59.8700;-54.8700;-5.0000
1211.9470;-59.8600;-54.8400;-5.0200
1212.1460;-59.9100;-54.8100;-5.1000
1212.3450;-59.9500;-54.7800;-5.1700
1212.5440;-60.0000;-54.7600;-5.2400
1212.7430;-59.9900;-54.7400;-5.2500
1212.9430;-60.0500;-54.7100;-5.3400
1213.1420;-60.1100;-54.6700;-5.4400
1213.3410;-60.0800;-54.6500;-5.4300
1213.5400;-60.0900;-54.6200;-5.4700
1213.7390;-60.1100;-54.6000;-5.5100
1213.9380;-60.1200;-54.5600;-5.5600
1214.1370;-60.0700;-54.5300;-5.5400
1214.3360;-59.9900;-54.5100;-5.4800
1214.5350;-59.9800;-54.4600;-5.5200
1214.7350;-59.8900;-54.4300;-5.4600
1214.9340;-59.8100;-54.3900;-5.4200
1215.1330;-59.6900;-54.3400;-5.3500
1215.3320;-59.5700;-54.3000;-5.2700
1215.5310;-59.5200;-54.2500;-5.2700
1215.7300;-59.3900;-54.2000;-5.1900
1215.9290;-59.2500;-54.1500;-5.1000
1216.1280;-59.1200;-54.1000;-5.0200
1216.3270;-59.0300;-54.0400;-4.9900
1216.5270;-58.9600;-53.9900;-4.9700
1216.7260;-58.8300;-53.9300;-4.9000
1216.9250;-58.7000;-53.8800;-4.8200
1217.1240;-58.6400;-53.8100;-4.8300
1217.3230;-58.5700;-53.7700;-4.8000
1217.5220;-58.4900;-53.7200;-4.7700
1217.7210;-58.4200;-53.6700;-4.7500
1217.9200;-58.3800;-53.6200;-4.7600
1218.1200;-58.3600;-53.5700;-4.7900
1218.3190;-58.3500;-53.5300;-4.8200
1218.5180;-58.3600;-53.4800;-4.8800
1218.7170;-58.3900;-53.4500;-4.9400
1218.9160;-58.4300;-53.4100;-5.0200
1219.1150;-58.4800;-53.3600;-5.1200
1219.3140;-58.5200;-53.3500;-5.1700
1219.5130;-58.6000;-53.3200;-5.2800
1219.7120;-58.6800;-53.2800;-5.4000
1219.9120;-58.7400;-53.2400;-5.5000
1220.1110;-58.7900;-53.2100;-5.5800
1220.3100;-58.8300;-53.1800;-5.6500
1220.5090;-58.9000;-53.1400;-5.7600
1220.7080;-58.9100;-53.1100;-5.8000
1220.9070;-58.8700;-53.0700;-5.8000
1221.1060;-58.8300;-53.0200;-5.8100
1221.3050;-58.7900;-52.9800;-5.8100
1221.5040;-58.7300;-52.9100;-5.8200
1221.7040;-58.6200;-52.8700;-5.7500
1221.9030;-58.4900;-52.8100;-5.6800
1222.1020;-58.3600;-52.7400;-5.6200
1222.3010;-58.2400;-52.7000;-5.5400
1222.5000;-58.0800;-52.6200;-5.4600
1222.6990;-57.8900;-52.5600;-5.3300
1222.8980;-57.7600;-52.4900;-5.2700
1223.0970;-57.6100;-52.4200;-5.1900
1223.2970;-57.4200;-52.3700;-5.0500
1223.4960;-57.2700;-52.2800;-4.9900
1223.6950;-57.1400;-52.2200;-4.9200
1223.8940;-57.0000;-52.1600;-4.8400
1224.0930;-56.8500;-52.0800;-4.7700
1224.2920;-56.7300;-52.0300;-4.7000
1224.4910;-56.6400;-51.9500;-4.6900
1224.6900;-56.5300;-51.8900;-4.6400
1224.8890;-56.4400;-51.8300;-4.6100
1225.0890;-56.3700;-51.7700;-4.6000
1225.2880;-56.3200;-51.7200;-4.6000
1225.4870;-56.3000;-51.6500;-4.6500
1225.6860;-56.2500;-51.6100;-4.6400
1225.8850;-56.2400;-51.5600;-4.6800
1226.0840;-56.2500;-51.5000;-4.7500
1226.2830;-56.2500;-51.4700;-4.7800
1226.4820;-56.2500;-51.4000;-4.8500
1226.6810;-56.2500;-51.3600;-4.8900
1226.8810;-56.2700;-51.3100;-4.9600
1227.0800;-56.2600;-51.2500;-5.0100
1227.2790;-56.2500;-51.2200;-5.0300
1227.4780;-56.2300;-51.1500;-5.0800
1227.6770;-56.2000;-51.1000;-5.1000
1227.8760;-56.1500;-51.0500;-5.1000
1228.0750;-56.0600;-50.9800;-5.0800
1228.2740;-55.9600;-50.9300;-5.0300
1228.4740;-55.8800;-50.8500;-5.0300
1228.6730;-55.7800;-50.7900;-4.9900
1228.8720;-55.6400;-50.7300;-4.9100
1229.0710;-55.5300;-50.6500;-4.8800
1229.2700;-55.4400;-50.5900;-4.8500
1229.4690;-55.3300;-50.5000;-4.8300
1229.6680;-55.2200;-50.4300;-4.7900
1229.8670;-55.1300;-50.3500;-4.7800
1230.0660;-55.0700;-50.2700;-4.8000
1230.2660;-55.0000;-50.2100;-4.7900
1230.4650;-54.9600;-50.1100;-4.8500
1230.6640;-54.9200;-50.0300;-4.8900
1230.8630;-54.9400;-49.9800;-4.9600
1231.0620;-54.9200;-49.9000;-5.0200
1231.2610;-54.9500;-49.8500;-5.1000
1231.4600;-55.0200;-49.7900;-5.2300
1231.6590;-55.0800;-49.7200;-5.3600
1231.8580;-55.1600;-49.6600;-5.5000
1232.0580;-55.2400;-49.6000;-5.6400
1232.2570;-55.3400;-49.5500;-5.7900
1232.4560;-55.4500;-49.4900;-5.9600
1232.6550;-55.5400;-49.4400;-6.1000
1232.8540;-55.6300;-49.3700;-6.2600
1233.0530;-55.7200;-49.3200;-6.4000
1233.2520;-55.7700;-49.2800;-6.4900
1233.4510;-55.7800;-49.2100;-6.5700
1233.6500;-55.7700;-49.1700;-6.6000
1233.8500;-55.7300;-49.1000;-6.6300
1234.0490;-55.6300;-49.0400;-6.5900
1234.2480;-55.4900;-48.9800;-6.5100
1234.4470;-55.3200;-48.9000;-6.4200
1234.6460;-55.1300;-48.8500;-6.2800
1234.8450;-54.9300;-48.7800;-6.1500
1235.0440;-54.6800;-48.7000;-5.9800
1235.2430;-54.4500;-48.6300;-5.8200
1235.4430;-54.2200;-48.5400;-5.6800
1235.6420;-53.9900;-48.4800;-5.5100
1235.8410;-53.7700;-48.3800;-5.3900
1236.0400;-53.5600;-48.3000;-5.2600
1236.2390;-53.3700;-48.2100;-5.1600
1236.4380;-53.2000;-48.1100;-5.0900
1236.6370;-53.0400;-48.0400;-5.0000
1236.8360;-52.9300;-47.9400;-4.9900
1237.0350;-52.8200;-47.8600;-4.9600
1237.2350;-52.7400;-47.7700;-4.9700
1237.4340;-52.6600;-47.6800;-4.9800
1237.6330;-52.6200;-47.6100;-5.0100
1237.8320;-52.6100;-47.5200;-5.0900
1238.0310;-52.5800;-47.4400;-5.1400
1238.2300;-52.5900;-47.3600;-5.2300
1238.4290;-52.6000;-47.2700;-5.3300
1238.6280;-52.6300;-47.2100;-5.4200
1238.8270;-52.6500;-47.1200;-5.5300
1239.0270;-52.6800;-47.0600;-5.6200
1239.2260;-52.7000;-46.9600;-5.7400
1239.4250;-52.7100;-46.8800;-5.8300
1239.6240;-52.7000;-46.8100;-5.8900
1239.8230;-52.6900;-46.7200;-5.9700
1240.0220;-52.6500;-46.6500;-6.0000
1240.2210;-52.5900;-46.5400;-6.0500
1240.4200;-52.4900;-46.4500;-6.0400
1240.6200;-52.3800;-46.3700;-6.0100
1240.8190;-52.2700;-46.2600;-6.0100
1241.0180;-52.1000;-46.1600;-5.9400
1241.2170;-51.9500;-46.0400;-5.9100
1241.4160;-51.7800;-45.9100;-5.8700
1241.6150;-51.6200;-45.8000;-5.8200
1241.8140;-51.4700;-45.6900;-5.7800
1242.0130;-51.3200;-45.5700;-5.7500
1242.2120;-51.2100;-45.4400;-5.7700
1242.4120;-51.0900;-45.3300;-5.7600
1242.6110;-50.9800;-45.1800;-5.8000
1242.8100;-50.9200;-45.0600;-5.8600
1243.0090;-50.8500;-44.9200;-5.9300
1243.2080;-50.8100;-44.8000;-6.0100
1243.4070;-50.7700;-44.6800;-6.0900
1243.6060;-50.7400;-44.5300;-6.2100
1243.8050;-50.7300;-44.4100;-6.3200
1244.0040;-50.6800;-44.2800;-6.4000
1244.2040;-50.6400;-44.1500;-6.4900
1244.4030;-50.5700;-44.0300;-6.5400
1244.6020;-50.4800;-43.8800;-6.6000
1244.8010;-50.3600;-43.7600;-6.6000
1245.0000;-50.2000;-43.6400;-6.5600
1245.1990;-50.0300;-43.5100;-6.5200
1245.3980;-49.8000;-43.4000;-6.4000
1245.5970;-49.5300;-43.2500;-6.2800
1245.7970;-49.2600;-43.1300;-6.1300
1245.9960;-48.9600;-42.9900;-5.9700
1246.1950;-48.6600;-42.8500;-5.8100
1246.3940;-48.3400;-42.7300;-5.6100
1246.5930;-48.0300;-42.5700;-5.4600
1246.7920;-47.7400;-42.4300;-5.3100
1246.9910;-47.4300;-42.2800;-5.1500
1247.1900;-47.1700;-42.1200;-5.0500
1247.3890;-46.9200;-41.9800;-4.9400
1247.5890;-46.6800;-41.8100;-4.8700
1247.7880;-46.4800;-41.6600;-4.8200
1247.9870;-46.3000;-41.4900;-4.8100
1248.1860;-46.1700;-41.3300;-4.8400
1248.3850;-46.0500;-41.1800;-4.8700
1248.5840;-45.9600;-41.0000;-4.9600
1248.7830;-45.9200;-40.8400;-5.0800
1248.9820;-45.8900;-40.6800;-5.2100
1249.1810;-45.9000;-40.5200;-5.3800
1249.3810;-45.9100;-40.3600;-5.5500
1249.5800;-45.9400;-40.1800;-5.7600
1249.7790;-45.9700;-40.0300;-5.9400
1249.9780;-45.9700;-39.8600;-6.1100
1250.1770;-45.9800;-39.7000;-6.2800
1250.3760;-45.9200;-39.5600;-6.3600
1250.5750;-45.8000;-39.3900;-6.4100
1250.7740;-45.6400;-39.2300;-6.4100
1250.9740;-45.4100;-39.0900;-6.3200
1251.1730;-45.1100;-38.9300;-6.1800
1251.3720;-44.7300;-38.7900;-5.9400
1251.5710;-44.3400;-38.6400;-5.7000
1251.7700;-43.8800;-38.4900;-5.3900
1251.9690;-43.4100;-38.3300;-5.0800
1252.1680;-42.9200;-38.1700;-4.7500
1252.3670;-42.4500;-38.0300;-4.4200
1252.5660;-42.0000;-37.8700;-4.1300
1252.7660;-41.5400;-37.7100;-3.8300
1252.9650;-41.1400;-37.5600;-3.5800
1253.1640;-40.7500;-37.3900;-3.3600
1253.3630;-40.4000;-37.2400;-3.1600
1253.5620;-40.1200;-37.0800;-3.0400
1253.7610;-39.8500;-36.9200;-2.9300
1253.9600;-39.6500;-36.7600;-2.8900
1254.1590;-39.4900;-36.5900;-2.9000
1254.3580;-39.3800;-36.4400;-2.9400
1254.5580;-39.3500;-36.2700;-3.0800
1254.7570;-39.3500;-36.1200;-3.2300
1254.9560;-39.4400;-35.9500;-3.4900
1255.1550;-39.5800;-35.7800;-3.8000
1255.3540;-39.7800;-35.6400;-4.1400
1255.5530;-40.0900;-35.4900;-4.6000
1255.7520;-40.4400;-35.3400;-5.1000
1255.9510;-40.8800;-35.1700;-5.7100
1256.1500;-41.4000;-35.0400;-6.3600
1256.3500;-41.9800;-34.8700;-7.1100
1256.5490;-42.6500;-34.7200;-7.9300
1256.7480;-43.3000;-34.5700;-8.7300
1256.9470;-43.9400;-34.4200;-9.5200
1257.1460;-44.4200;-34.2700;-10.1500
1257.3450;-44.6800;-34.1000;-10.5800
1257.5440;-44.6100;-33.9600;-10.6500
1257.7430;-44.1600;-33.8100;-10.3500
1257.9430;-43.4300;-33.6500;-9.7800
1258.1420;-42.5100;-33.5100;-9.0000
1258.3410;-41.5100;-33.3400;-8.1700
1258.5400;-40.5200;-33.1900;-7.3300
1258.7390;-39.5500;-33.0300;-6.5200
1258.9380;-38.6600;-32.8700;-5.7900
1259.1370;-37.8200;-32.7300;-5.0900
1259.3360;-37.0700;-32.5600;-4.5100
1259.5350;-36.3900;-32.4200;-3.9700
1259.7350;-35.6700;-32.2700;-3.4000
1259.9340;-35.2300;-32.1100;-3.1200
1260.1330;-34.7700;-31.9700;-2.8000
1260.3320;-34.3800;-31.8100;-2.5700
1260.5310;-34.0400;-31.6800;-2.3600
1260.7300;-33.7800;-31.5300;-2.2500
1260.9290;-33.5800;-31.3800;-2.2000
1261.1280;-33.4400;-31.2500;-2.1900
1261.3270;-33.3900;-31.0900;-2.3000
1261.5270;-33.3900;-30.9700;-2.4200
1261.7260;-33.4700;-30.8200;-2.6500
1261.9250;-33.6200;-30.6800;-2.9400
1262.1240;-33.8300;-30.5500;-3.2800
1262.3230;-34.1500;-30.4000;-3.7500
1262.5220;-34.5400;-30.2700;-4.2700
1262.7210;-35.0200;-30.1300;-4.8900
1262.9200;-35.5700;-29.9800;-5.5900
1263.1200;-36.2200;-29.8500;-6.3700
1263.3190;-36.9500;-29.6900;-7.2600
1263.5180;-37.7300;-29.5600;-8.1700
1263.7170;-38.7000;-29.4100;-9.2900
1263.9160;-39.2500;-29.2600;-9.9900
1264.1150;-39.7000;-29.1300;-10.5700
1264.3140;-39.7600;-28.9600;-10.8000
1264.5130;-39.3400;-28.8300;-10.5100
1264.7120;-38.5400;-28.6800;-9.8600
1264.9120;-37.4900;-28.5300;-8.9600
1265.1110;-36.3700;-28.3900;-7.9800
1265.3100;-35.1000;-28.2300;-6.8700
1265.5090;-34.2500;-28.1000;-6.1500
1265.7080;-33.3100;-27.9500;-5.3600
1265.9070;-32.4600;-27.8100;-4.6500
1266.1060;-31.7000;-27.6800;-4.0200
1266.3050;-31.0200;-27.5400;-3.4800
1266.5040;-30.4400;-27.4200;-3.0200
1266.7040;-29.9400;-27.2900;-2.6500
1266.9030;-29.5000;-27.1600;-2.3400
1267.1020;-29.1600;-27.0400;-2.1200
1267.3010;-28.8700;-26.9100;-1.9600
1267.5000;-28.6800;-26.8000;-1.8800
1267.6990;-28.5400;-26.6800;-1.8600
1267.8980;-28.4700;-26.5600;-1.9100
1268.0970;-28.4900;-26.4600;-2.0300
1268.2970;-28.5600;-26.3300;-2.2300
1268.4960;-28.7200;-26.2300;-2.4900
1268.6950;-28.9400;-26.0800;-2.8600
1268.8940;-29.2300;-25.9900;-3.2400
1269.0930;-29.6200;-25.8800;-3.7400
1269.2920;-30.0600;-25.7500;-4.3100
1269.4910;-30.6200;-25.6500;-4.9700
1269.6900;-31.2500;-25.5100;-5.7400
1269.8890;-31.9600;-25.3900;-6.5700
1270.0890;-32.7500;-25.2600;-7.4900
1270.2880;-33.5400;-25.1300;-8.4100
1270.4870;-34.3200;-25.0300;-9.2900
1270.6860;-34.9000;-24.8900;-10.0100
1270.8850;-35.1300;-24.7600;-10.3700
1271.0840;-34.9200;-24.6300;-10.2900
1271.2830;-34.2500;-24.5100;-9.7400
1271.4820;-33.3200;-24.3900;-8.9300
1271.6810;-32.2700;-24.2600;-8.0100
1271.8810;-31.2100;-24.1500;-7.0600
1272.0800;-30.2200;-24.0300;-6.1900
1272.2790;-29.3000;-23.9100;-5.3900
1272.4780;-28.4800;-23.8200;-4.6600
1272.6770;-27.7400;-23.7000;-4.0400
1272.8760;-27.1000;-23.6100;-3.4900
1273.0750;-26.5500;-23.5000;-3.0500
1273.2740;-25.9900;-23.4000;-2.5900
1273.4740;-25.6700;-23.3200;-2.3500
1273.6730;-25.3400;-23.2100;-2.1300
1273.8720;-25.0900;-23.1300;-1.9600
1274.0710;-24.8800;-23.0300;-1.8500
1274.2700;-24.7400;-22.9300;-1.8100
1274.4690;-24.6800;-22.8500;-1.8300
1274.6680;-24.6600;-22.7500;-1.9100
1274.8670;-24.7200;-22.6600;-2.0600
1275.0660;-24.8200;-22.5600;-2.2600
1275.2660;-25.0000;-22.4700;-2.5300
1275.4650;-25.2500;-22.3800;-2.8700
1275.6640;-25.5500;-22.2700;-3.2800
1275.8630;-25.9600;-22.1800;-3.7800
1276.0620;-26.4100;-22.0700;-4.3400
1276.2610;-26.9600;-21.9700;-4.9900
1276.4600;-27.5900;-21.8700;-5.7200
1276.6590;-28.4200;-21.7500;-6.6700
1276.8580;-29.0300;-21.6600;-7.3700
1277.0580;-29.7700;-21.5400;-8.2300
1277.2570;-30.4400;-21.4500;-8.9900
1277.4560;-30.9100;-21.3500;-9.5600
1277.6550;-31.0900;-21.2400;-9.8500
1277.8540;-30.8700;-21.1600;-9.7100
1278.0530;-30.3200;-21.0500;-9.2700
1278.2520;-29.5600;-20.9600;-8.6000
1278.4510;-28.6600;-20.8700;-7.7900
1278.6500;-27.7600;-20.7700;-6.9900
1278.8500;-26.8700;-20.7000;-6.1700
1279.0490;-25.9300;-20.6000;-5.3300
1279.2480;-25.3000;-20.5200;-4.7800
1279.4470;-24.6400;-20.4400;-4.2000
1279.6460;-24.0400;-20.3500;-3.6900
1279.8450;-23.5100;-20.2800;-3.2300
1280.0440;-23.0600;-20.1900;-2.8700
1280.2430;-22.6500;-20.1300;-2.5200
1280.4430;-22.3100;-20.0400;-2.2700
1280.6420;-22.0200;-19.9700;-2.0500
1280.8410;-21.7900;-19.9000;-1.8900
1281.0400;-21.6300;-19.8200;-1.8100
1281.2390;-21.4900;-19.7500;-1.7400
1281.4380;-21.4100;-19.6700;-1.7400
1281.6370;-21.3800;-19.6000;-1.7800
1281.8360;-21.3900;-19.5300;-1.8600
1282.0350;-21.4600;-19.4500;-2.0100
1282.2350;-21.5400;-19.3900;-2.1500
1282.4340;-21.6700;-19.3000;-2.3700
1282.6330;-21.8300;-19.2400;-2.5900
1282.8320;-21.9900;-19.1700;-2.8200
1283.0310;-22.1900;-19.0900;-3.1000
1283.2300;-22.3500;-19.0200;-3.3300
1283.4290;-22.5200;-18.9400;-3.5800
1283.6280;-22.6400;-18.8700;-3.7700
1283.8270;-22.7100;-18.8000;-3.9100
1284.0270;-22.7400;-18.7200;-4.0200
1284.2260;-22.6800;-18.6600;-4.0200
1284.4250;-22.5700;-18.5800;-3.9900
1284.6240;-22.3700;-18.5100;-3.8600
1284.8230;-22.1200;-18.4300;-3.6900
1285.0220;-21.8400;-18.3600;-3.4800
1285.2210;-21.5100;-18.3000;-3.2100
1285.4200;-21.1900;-18.2200;-2.9700
1285.6200;-20.8500;-18.1600;-2.6900
1285.8190;-20.5200;-18.1000;-2.4200
1286.0180;-20.2200;-18.0300;-2.1900
1286.2170;-19.9400;-17.9800;-1.9600
1286.4160;-19.7000;-17.9100;-1.7900
1286.6150;-19.4900;-17.8800;-1.6100
1286.8140;-19.3200;-17.8200;-1.5000
1287.0130;-19.1900;-17.7600;-1.4300
1287.2120;-19.0900;-17.7200;-1.3700
1287.4120;-19.0600;-17.6600;-1.4000
1287.6110;-19.0500;-17.6300;-1.4200
1287.8100;-19.1000;-17.5700;-1.5300
1288.0090;-19.1900;-17.5200;-1.6700
1288.2080;-19.3200;-17.4800;-1.8400
1288.4070;-19.5200;-17.4300;-2.0900
1288.6060;-19.7300;-17.4000;-2.3300
1288.8050;-19.9900;-17.3400;-2.6500
1289.0040;-20.2800;-17.3000;-2.9800
1289.2040;-20.5800;-17.2500;-3.3300
1289.4030;-20.9100;-17.1900;-3.7200
1289.6020;-21.2100;-17.1600;-4.0500
1289.8010;-21.4900;-17.0900;-4.4000
1290.0000;-21.7000;-17.0400;-4.6600
1290.1990;-21.8400;-16.9900;-4.8500
1290.3980;-21.8900;-16.9300;-4.9600
1290.5970;-21.8200;-16.8900;-4.9300
1290.7970;-21.6400;-16.8200;-4.8200
1290.9960;-21.3400;-16.7600;-4.5800
1291.1950;-20.9700;-16.7000;-4.2700
1291.3940;-20.5800;-16.6400;-3.9400
1291.5930;-20.1300;-16.5800;-3.5500
1291.7920;-19.7000;-16.5200;-3.1800
1291.9910;-19.2800;-16.4800;-2.8000
1292.1900;-18.8800;-16.4200;-2.4600
1292.3890;-18.5200;-16.3800;-2.1400
1292.5890;-18.1900;-16.3300;-1.8600
1292.7880;-17.9200;-16.2800;-1.6400
1292.9870;-17.6800;-16.2500;-1.4300
1293.1860;-17.5100;-16.2100;-1.3000
1293.3850;-17.3900;-16.1800;-1.2100
1293.5840;-17.3000;-16.1400;-1.1600
1293.7830;-17.3000;-16.1200;-1.1800
1293.9820;-17.3300;-16.0900;-1.2400
1294.1810;-17.4400;-16.0700;-1.3700
1294.3810;-17.6000;-16.0600;-1.5400
1294.5800;-17.8200;-16.0200;-1.8000
1294.7790;-18.1300;-16.0100;-2.1200
1294.9780;-18.4900;-15.9800;-2.5100
1295.1770;-18.9500;-15.9600;-2.9900
1295.3760;-19.4800;-15.9400;-3.5400
1295.5750;-20.1100;-15.9000;-4.2100
1295.7740;-20.8500;-15.8900;-4.9600
1295.9740;-21.7000;-15.8400;-5.8600
1296.1730;-22.7100;-15.8200;-6.8900
1296.3720;-23.8200;-15.7900;-8.0300
1296.5710;-25.0700;-15.7400;-9.3300
1296.7700;-26.3900;-15.7200;-10.6700
1296.9690;-27.6000;-15.6800;-11.9200
1297.1680;-28.5600;-15.6500;-12.9100
1297.3670;-28.4500;-15.6100;-12.8400
1297.5660;-27.6800;-15.5600;-12.1200
1297.7660;-26.4300;-15.5400;-10.8900
1297.9650;-24.8600;-15.4900;-9.3700
1298.1640;-23.7700;-15.4600;-8.3100
1298.3630;-22.6200;-15.4300;-7.1900
1298.5620;-21.5700;-15.3800;-6.1900
1298.7610;-20.6700;-15.3600;-5.3100
1298.9600;-19.9000;-15.3300;-4.5700
1299.1590;-19.2300;-15.3200;-3.9100
1299.3580;-18.6700;-15.2900;-3.3800
1299.5580;-18.1600;-15.2600;-2.9000
1299.7570;-17.7600;-15.2500;-2.5100
1299.9560;-17.4200;-15.2400;-2.1800
1300.1550;-17.1600;-15.2400;-1.9200
1300.3540;-16.9800;-15.2200;-1.7600
1300.5530;-16.8200;-15.2100;-1.6100
1300.7520;-16.7600;-15.2100;-1.5500
1300.9510;-16.7400;-15.2000;-1.5400
1301.1500;-16.7900;-15.2200;-1.5700
1301.3500;-16.9100;-15.2100;-1.7000
1301.5490;-17.0700;-15.2200;-1.8500
1301.7480;-17.3100;-15.2200;-2.0900
1301.9470;-17.5900;-15.2200;-2.3700
1302.1460;-17.9500;-15.2400;-2.7100
1302.3450;-18.3800;-15.2300;-3.1500
1302.5440;-18.8800;-15.2500;-3.6300
1302.7430;-19.4700;-15.2400;-4.2300
1302.9430;-20.1200;-15.2400;-4.8800
1303.1420;-20.8800;-15.2600;-5.6200
1303.3410;-21.7400;-15.2500;-6.4900
1303.5400;-22.7100;-15.2700;-7.4400
1303.7390;-23.8000;-15.2500;-8.5500
1303.9380;-24.9700;-15.2600;-9.7100
1304.1370;-26.2400;-15.2700;-10.9700
1304.3360;-27.4700;-15.2700;-12.2000
1304.5350;-28.7800;-15.2800;-13.5000
1304.7350;-29.2200;-15.2700;-13.9500
1304.9340;-29.2300;-15.2800;-13.9500
1305.1330;-28.6800;-15.2800;-13.4000
1305.3320;-27.7800;-15.2800;-12.5000
1305.5310;-26.8000;-15.3100;-11.4900
1305.7300;-25.6600;-15.3000;-10.3600
1305.9290;-24.9500;-15.3100;-9.6400
1306.1280;-24.1800;-15.3200;-8.8600
1306.3270;-23.5100;-15.3300;-8.1800
1306.5270;-22.9500;-15.3600;-7.5900
1306.7260;-22.4700;-15.3700;-7.1000
1306.9250;-22.0700;-15.3900;-6.6800
1307.1240;-21.7300;-15.4000;-6.3300
1307.3230;-21.4600;-15.4200;-6.0400
1307.5220;-21.2500;-15.4600;-5.7900
1307.7210;-21.0700;-15.4700;-5.6000
1307.9200;-20.9500;-15.4900;-5.4600
1308.1200;-20.8400;-15.5200;-5.3200
1308.3190;-20.7500;-15.5400;-5.2100
1308.5180;-20.6800;-15.5700;-5.1100
1308.7170;-20.6000;-15.5900;-5.0100
1308.9160;-20.5200;-15.6200;-4.9000
1309.1150;-20.4200;-15.6400;-4.7800
1309.3140;-20.3200;-15.6700;-4.6500
1309.5130;-20.1800;-15.7000;-4.4800
1309.7120;-20.0300;-15.7100;-4.3200
1309.9120;-19.8500;-15.7500;-4.1000
