Wavelength;Intensity_Meas;Intensity_Ref;Difference_dB
1200.0000;-61.9500;-57.0700;-4.8800
1200.1990;-61.9600;-57.0400;-4.9200
1200.3980;-61.9400;-57.0000;-4.9400
1200.5970;-61.9600;-56.9900;-4.9700
1200.7970;-61.8900;-56.9700;-4.9200
1200.9960;-61.9400;-56.9200;-5.0200
1201.1950;-61.9600;-56.8900;-5.0700
1201.3940;-61.8900;-56.8600;-5.0300
1201.5930;-61.8600;-56.8100;-5.0500
1201.7920;-61.8700;-56.7700;-5.1000
1201.9910;-61.8700;-56.7100;-5.1600
1202.1900;-61.8100;-56.6600;-5.1500
1202.3890;-61.7500;-56.6200;-5.1300
1202.5890;-61.7600;-56.5700;-5.1900
1202.7880;-61.7200;-56.5200;-5.2000
1202.9870;-61.6700;-56.4600;-5.2100
1203.1860;-61.5700;-56.4100;-5.1600
1203.3850;-61.4900;-56.3700;-5.1200
1203.5840;-61.4800;-56.3200;-5.1600
1203.7830;-61.4000;-56.2800;-5.1200
1203.9820;-61.3300;-56.2400;-5.0900
1204.1810;-61.2000;-56.1900;-5.0100
1204.3810;-61.1300;-56.1700;-4.9600
1204.5800;-61.0900;-56.1300;-4.9600
1204.7790;-61.0100;-56.0900;-4.9200
1204.9780;-60.9400;-56.0600;-4.8800
1205.1770;-60.9000;-56.0400;-4.8600
1205.3760;-60.8700;-56.0100;-4.8600
1205.5750;-60.8700;-55.9900;-4.8800
1205.7740;-60.8300;-55.9800;-4.8500
1205.9740;-60.7800;-55.9500;-4.8300
1206.1730;-60.8300;-55.9400;-4.8900
1206.3720;-60.8300;-55.9300;-4.9000
1206.5710;-60.8500;-55.9100;-4.9400
1206.7700;-60.8200;-55.8800;-4.9400
1206.9690;-60.8700;-55.8600;-5.0100
1207.1680;-60.9200;-55.8300;-5.0900
1207.3670;-60.8800;-55.8100;-5.0700
1207.5660;-60.9000;-55.7800;-5.1200
1207.7660;-60.9400;-55.7500;-5.1900
1207.9650;-60.9800;-55.7100;-5.2700
1208.1640;-60.9800;-55.6800;-5.3000
1208.3630;-60.9300;-55.6600;-5.2700
1208.5620;-60.9600;-55.6000;-5.3600
1208.7610;-60.9700;-55.5600;-5.4100
1208.9600;-60.9600;-55.5100;-5.4500
1209.1590;-60.9100;-55.4500;-5.4600
1209.3580;-60.8900;-55.4100;-5.4800
1209.5580;-60.8600;-55.3600;-5.5000
1209.7570;-60.8200;-55.3100;-5.5100
1209.9560;-60.7300;-55.2600;-5.4700
1210.1550;-60.6800;-55.2100;-5.4700
1210.3540;-60.5900;-55.1800;-5.4100
1210.5530;-60.5500;-55.1100;-5.4400
1210.7520;-60.4400;-55.0700;-5.3700
1210.9510;-60.3000;-55.0300;-5.2700
1211.1500;-60.2200;-54.9800;-5.2400
1211.3500;-60.1300;-54.9500;-5.1800
1211.5490;-60.0600;-54.9100;-5.1500
1211.7480;-59.9500;-54.8700;-5.0800
1211.9470;-59.8600;-54.8400;-5.0200
1212.1460;-59.8000;-54.8100;-4.9900
1212.3450;-59.7500;-54.7800;-4.9700
1212.5440;-59.6800;-54.7600;-4.9200
1212.7430;-59.6100;-54.7400;-4.8700
1212.9430;-59.5800;-54.7100;-4.8700
1213.1420;-59.5900;-54.6700;-4.9200
1213.3410;-59.5100;-54.6500;-4.8600
1213.5400;-59.4900;-54.6200;-4.8700
1213.7390;-59.4700;-54.6000;-4.8700
1213.9380;-59.4800;-54.5600;-4.9200
1214.1370;-59.4500;-54.5300;-4.9200
1214.3360;-59.4100;-54.5100;-4.9000
1214.5350;-59.4300;-54.4600;-4.9700
1214.7350;-59.4200;-54.4300;-4.9900
1214.9340;-59.4200;-54.3900;-5.0300
1215.1330;-59.4100;-54.3400;-5.0700
1215.3320;-59.4000;-54.3000;-5.1000
1215.5310;-59.4300;-54.2500;-5.1800
1215.7300;-59.4300;-54.2000;-5.2300
1215.9290;-59.3800;-54.1500;-5.2300
1216.1280;-59.3800;-54.1000;-5.2800
1216.3270;-59.3800;-54.0400;-5.3400
1216.5270;-59.3600;-53.9900;-5.3700
1216.7260;-59.2900;-53.9300;-5.3600
1216.9250;-59.2300;-53.8800;-5.3500
1217.1240;-59.1700;-53.8100;-5.3600
1217.3230;-59.1100;-53.7700;-5.3400
1217.5220;-59.0400;-53.7200;-5.3200
1217.7210;-58.9200;-53.6700;-5.2500
1217.9200;-58.8400;-53.6200;-5.2200
1218.1200;-58.7800;-53.5700;-5.2100
1218.3190;-58.6700;-53.5300;-5.1400
1218.5180;-58.5900;-53.4800;-5.1100
1218.7170;-58.5100;-53.4500;-5.0600
1218.9160;-58.4700;-53.4100;-5.0600
1219.1150;-58.4100;-53.3600;-5.0500
1219.3140;-58.3400;-53.3500;-4.9900
1219.5130;-58.3100;-53.3200;-4.9900
1219.7120;-58.2700;-53.2800;-4.9900
1219.9120;-58.2300;-53.2400;-4.9900
1220.1110;-58.1600;-53.2100;-4.9500
1220.3100;-58.1100;-53.1800;-4.9300
1220.5090;-58.1200;-53.1400;-4.9800
1220.7080;-58.0600;-53.1100;-4.9500
1220.9070;-57.9900;-53.0700;-4.9200
1221.1060;-57.9400;-53.0200;-4.9200
1221.3050;-57.9100;-52.9800;-4.9300
1221.5040;-57.8600;-52.9100;-4.9500
1221.7040;-57.7800;-52.8700;-4.9100
1221.9030;-57.7300;-52.8100;-4.9200
1222.1020;-57.6800;-52.7400;-4.9400
1222.3010;-57.6500;-52.7000;-4.9500
1222.5000;-57.5900;-52.6200;-4.9700
1222.6990;-57.5100;-52.5600;-4.9500
1222.8980;-57.4800;-52.4900;-4.9900
1223.0970;-57.4400;-52.4200;-5.0200
1223.2970;-57.3500;-52.3700;-4.9800
1223.4960;-57.3000;-52.2800;-5.0200
1223.6950;-57.2500;-52.2200;-5.0300
1223.8940;-57.1900;-52.1600;-5.0300
1224.0930;-57.1100;-52.0800;-5.0300
1224.2920;-57.0400;-52.0300;-5.0100
1224.4910;-56.9900;-51.9500;-5.0400
1224.6900;-56.9300;-51.8900;-5.0400
1224.8890;-56.8800;-51.8300;-5.0500
1225.0890;-56.8400;-51.7700;-5.0700
1225.2880;-56.8100;-51.7200;-5.0900
1225.4870;-56.8200;-51.6500;-5.1700
1225.6860;-56.8200;-51.6100;-5.2100
1225.8850;-56.8400;-51.5600;-5.2800
1226.0840;-56.8900;-51.5000;-5.3900
1226.2830;-56.9400;-51.4700;-5.4700
1226.4820;-56.9900;-51.4000;-5.5900
1226.6810;-57.0500;-51.3600;-5.6900
1226.8810;-57.1300;-51.3100;-5.8200
1227.0800;-57.2000;-51.2500;-5.9500
1227.2790;-57.2300;-51.2200;-6.0100
1227.4780;-57.2900;-51.1500;-6.1400
1227.6770;-57.3100;-51.1000;-6.2100
1227.8760;-57.3300;-51.0500;-6.2800
1228.0750;-57.2900;-50.9800;-6.3100
1228.2740;-57.2400;-50.9300;-6.3100
1228.4740;-57.2000;-50.8500;-6.3500
1228.6730;-57.1000;-50.7900;-6.3100
1228.8720;-56.9700;-50.7300;-6.2400
1229.0710;-56.8200;-50.6500;-6.1700
1229.2700;-56.6800;-50.5900;-6.0900
1229.4690;-56.5000;-50.5000;-6.0000
1229.6680;-56.2800;-50.4300;-5.8500
1229.8670;-56.0600;-50.3500;-5.7100
1230.0660;-55.8600;-50.2700;-5.5900
1230.2660;-55.5700;-50.2100;-5.3600
1230.4650;-55.3600;-50.1100;-5.2500
1230.6640;-55.1400;-50.0300;-5.1100
1230.8630;-54.9500;-49.9800;-4.9700
1231.0620;-54.7400;-49.9000;-4.8400
1231.2610;-54.5500;-49.8500;-4.7000
1231.4600;-54.4100;-49.7900;-4.6200
1231.6590;-54.2700;-49.7200;-4.5500
1231.8580;-54.1600;-49.6600;-4.5000
1232.0580;-54.0700;-49.6000;-4.4700
1232.2570;-54.0100;-49.5500;-4.4600
1232.4560;-54.0100;-49.4900;-4.5200
1232.6550;-53.9800;-49.4400;-4.5400
1232.8540;-53.9800;-49.3700;-4.6100
1233.0530;-54.0300;-49.3200;-4.7100
1233.2520;-54.0700;-49.2800;-4.7900
1233.4510;-54.1300;-49.2100;-4.9200
1233.6500;-54.2200;-49.1700;-5.0500
1233.8500;-54.3000;-49.1000;-5.2000
1234.0490;-54.3800;-49.0400;-5.3400
1234.2480;-54.4400;-48.9800;-5.4600
1234.4470;-54.5300;-48.9000;-5.6300
1234.6460;-54.6000;-48.8500;-5.7500
1234.8450;-54.6700;-48.7800;-5.8900
1235.0440;-54.6800;-48.7000;-5.9800
1235.2430;-54.6900;-48.6300;-6.0600
1235.4430;-54.7000;-48.5400;-6.1600
1235.6420;-54.6500;-48.4800;-6.1700
1235.8410;-54.5700;-48.3800;-6.1900
1236.0400;-54.4800;-48.3000;-6.1800
1236.2390;-54.3500;-48.2100;-6.1400
1236.4380;-54.2100;-48.1100;-6.1000
1236.6370;-54.0300;-48.0400;-5.9900
1236.8360;-53.8500;-47.9400;-5.9100
1237.0350;-53.6600;-47.8600;-5.8000
1237.2350;-53.4500;-47.7700;-5.6800
1237.4340;-53.2600;-47.6800;-5.5800
1237.6330;-53.0800;-47.6100;-5.4700
1237.8320;-52.9200;-47.5200;-5.4000
1238.0310;-52.7500;-47.4400;-5.3100
1238.2300;-52.6100;-47.3600;-5.2500
1238.4290;-52.5000;-47.2700;-5.2300
1238.6280;-52.4100;-47.2100;-5.2000
1238.8270;-52.3300;-47.1200;-5.2100
1239.0270;-52.2600;-47.0600;-5.2000
1239.2260;-52.2200;-46.9600;-5.2600
1239.4250;-52.1900;-46.8800;-5.3100
1239.6240;-52.1500;-46.8100;-5.3400
1239.8230;-52.1400;-46.7200;-5.4200
1240.0220;-52.1200;-46.6500;-5.4700
1240.2210;-52.0900;-46.5400;-5.5500
1240.4200;-52.0600;-46.4500;-5.6100
1240.6200;-52.0100;-46.3700;-5.6400
1240.8190;-51.9700;-46.2600;-5.7100
1241.0180;-51.8800;-46.1600;-5.7200
1241.2170;-51.8000;-46.0400;-5.7600
1241.4160;-51.7000;-45.9100;-5.7900
1241.6150;-51.5800;-45.8000;-5.7800
1241.8140;-51.4700;-45.6900;-5.7800
1242.0130;-51.3300;-45.5700;-5.7600
1242.2120;-51.2100;-45.4400;-5.7700
1242.4120;-51.0800;-45.3300;-5.7500
1242.6110;-50.9200;-45.1800;-5.7400
1242.8100;-50.8100;-45.0600;-5.7500
1243.0090;-50.6700;-44.9200;-5.7500
1243.2080;-50.5500;-44.8000;-5.7500
1243.4070;-50.4400;-44.6800;-5.7600
1243.6060;-50.3400;-44.5300;-5.8100
1243.8050;-50.2700;-44.4100;-5.8600
1244.0040;-50.1900;-44.2800;-5.9100
1244.2040;-50.1400;-44.1500;-5.9900
1244.4030;-50.1100;-44.0300;-6.0800
1244.6020;-50.0900;-43.8800;-6.2100
1244.8010;-50.0900;-43.7600;-6.3300
1245.0000;-50.0800;-43.6400;-6.4400
1245.1990;-50.1000;-43.5100;-6.5900
1245.3980;-50.0900;-43.4000;-6.6900
1245.5970;-50.0500;-43.2500;-6.8000
1245.7970;-50.0300;-43.1300;-6.9000
1245.9960;-49.9400;-42.9900;-6.9500
1246.1950;-49.8200;-42.8500;-6.9700
1246.3940;-49.6600;-42.7300;-6.9300
1246.5930;-49.4300;-42.5700;-6.8600
1246.7920;-49.1800;-42.4300;-6.7500
1246.9910;-48.8500;-42.2800;-6.5700
1247.1900;-48.5200;-42.1200;-6.4000
1247.3890;-48.1500;-41.9800;-6.1700
1247.5890;-47.7400;-41.8100;-5.9300
1247.7880;-47.3600;-41.6600;-5.7000
1247.9870;-46.9400;-41.4900;-5.4500
1248.1860;-46.5600;-41.3300;-5.2300
1248.3850;-46.1800;-41.1800;-5.0000
1248.5840;-45.7600;-41.0000;-4.7600
1248.7830;-45.4900;-40.8400;-4.6500
1248.9820;-45.1900;-40.6800;-4.5100
1249.1810;-44.9300;-40.5200;-4.4100
1249.3810;-44.6900;-40.3600;-4.3300
1249.5800;-44.4900;-40.1800;-4.3100
1249.7790;-44.3200;-40.0300;-4.2900
1249.9780;-44.1900;-39.8600;-4.3300
1250.1770;-44.1200;-39.7000;-4.4200
1250.3760;-44.0600;-39.5600;-4.5000
1250.5750;-44.0500;-39.3900;-4.6600
1250.7740;-44.0700;-39.2300;-4.8400
1250.9740;-44.1400;-39.0900;-5.0500
1251.1730;-44.2300;-38.9300;-5.3000
1251.3720;-44.3400;-38.7900;-5.5500
1251.5710;-44.5000;-38.6400;-5.8600
1251.7700;-44.6200;-38.4900;-6.1300
1251.9690;-44.7600;-38.3300;-6.4300
1252.1680;-44.8900;-38.1700;-6.7200
1252.3670;-44.9800;-38.0300;-6.9500
1252.5660;-45.0400;-37.8700;-7.1700
1252.7660;-45.0100;-37.7100;-7.3000
1252.9650;-44.9400;-37.5600;-7.3800
1253.1640;-44.7900;-37.3900;-7.4000
1253.3630;-44.5500;-37.2400;-7.3100
1253.5620;-44.2800;-37.0800;-7.2000
1253.7610;-43.9300;-36.9200;-7.0100
1253.9600;-43.5500;-36.7600;-6.7900
1254.1590;-43.1500;-36.5900;-6.5600
1254.3580;-42.7300;-36.4400;-6.2900
1254.5580;-42.3400;-36.2700;-6.0700
1254.7570;-41.9300;-36.1200;-5.8100
1254.9560;-41.5500;-35.9500;-5.6000
1255.1550;-41.2100;-35.7800;-5.4300
1255.3540;-40.8800;-35.6400;-5.2400
1255.5530;-40.6200;-35.4900;-5.1300
1255.7520;-40.3600;-35.3400;-5.0200
1255.9510;-40.1500;-35.1700;-4.9800
1256.1500;-39.9800;-35.0400;-4.9400
1256.3500;-39.8400;-34.8700;-4.9700
1256.5490;-39.7500;-34.7200;-5.0300
1256.7480;-39.6600;-34.5700;-5.0900
1256.9470;-39.6100;-34.4200;-5.1900
1257.1460;-39.5700;-34.2700;-5.3000
1257.3450;-39.5400;-34.1000;-5.4400
1257.5440;-39.5400;-33.9600;-5.5800
1257.7430;-39.4900;-33.8100;-5.6800
1257.9430;-39.4500;-33.6500;-5.8000
1258.1420;-39.3600;-33.5100;-5.8500
1258.3410;-39.2300;-33.3400;-5.8900
1258.5400;-39.0700;-33.1900;-5.8800
1258.7390;-38.8200;-33.0300;-5.7900
1258.9380;-38.5400;-32.8700;-5.6700
1259.1370;-38.2100;-32.7300;-5.4800
1259.3360;-37.8300;-32.5600;-5.2700
1259.5350;-37.4300;-32.4200;-5.0100
1259.7350;-36.9900;-32.2700;-4.7200
1259.9340;-36.5600;-32.1100;-4.4500
1260.1330;-36.1200;-31.9700;-4.1500
1260.3320;-35.6200;-31.8100;-3.8100
1260.5310;-35.2800;-31.6800;-3.6000
1260.7300;-34.8900;-31.5300;-3.3600
1260.9290;-34.5300;-31.3800;-3.1500
1261.1280;-34.2000;-31.2500;-2.9500
1261.3270;-33.9200;-31.0900;-2.8300
1261.5270;-33.6700;-30.9700;-2.7000
1261.7260;-33.4500;-30.8200;-2.6300
1261.9250;-33.2900;-30.6800;-2.6100
1262.1240;-33.1600;-30.5500;-2.6100
1262.3230;-33.1000;-30.4000;-2.7000
1262.5220;-33.0700;-30.2700;-2.8000
1262.7210;-33.0900;-30.1300;-2.9600
1262.9200;-33.1500;-29.9800;-3.1700
1263.1200;-33.2600;-29.8500;-3.4100
1263.3190;-33.4400;-29.6900;-3.7500
1263.5180;-33.6500;-29.5600;-4.0900
1263.7170;-33.9000;-29.4100;-4.4900
1263.9160;-34.2000;-29.2600;-4.9400
1264.1150;-34.5200;-29.1300;-5.3900
1264.3140;-34.8800;-28.9600;-5.9200
1264.5130;-35.2200;-28.8300;-6.3900
1264.7120;-35.5400;-28.6800;-6.8600
1264.9120;-35.7900;-28.5300;-7.2600
1265.1110;-35.9300;-28.3900;-7.5400
1265.3100;-35.9400;-28.2300;-7.7100
1265.5090;-35.7600;-28.1000;-7.6600
1265.7080;-35.4300;-27.9500;-7.4800
1265.9070;-34.9400;-27.8100;-7.1300
1266.1060;-34.3500;-27.6800;-6.6700
1266.3050;-33.7200;-27.5400;-6.1800
1266.5040;-33.0400;-27.4200;-5.6200
1266.7040;-32.3800;-27.2900;-5.0900
1266.9030;-31.7200;-27.1600;-4.5600
1267.1020;-31.1000;-27.0400;-4.0600
1267.3010;-30.5400;-26.9100;-3.6300
1267.5000;-30.0100;-26.8000;-3.2100
1267.6990;-29.5400;-26.6800;-2.8600
1267.8980;-29.1000;-26.5600;-2.5400
1268.0970;-28.7200;-26.4600;-2.2600
1268.2970;-28.4000;-26.3300;-2.0700
1268.4960;-28.1000;-26.2300;-1.8700
1268.6950;-27.8600;-26.0800;-1.7800
1268.8940;-27.6400;-25.9900;-1.6500
1269.0930;-27.4700;-25.8800;-1.5900
1269.2920;-27.3400;-25.7500;-1.5900
1269.4910;-27.2400;-25.6500;-1.5900
1269.6900;-27.1800;-25.5100;-1.6700
1269.8890;-27.1300;-25.3900;-1.7400
1270.0890;-27.1100;-25.2600;-1.8500
1270.2880;-27.1200;-25.1300;-1.9900
1270.4870;-27.1400;-25.0300;-2.1100
1270.6860;-27.1700;-24.8900;-2.2800
1270.8850;-27.1900;-24.7600;-2.4300
1271.0840;-27.2100;-24.6300;-2.5800
1271.2830;-27.2400;-24.5100;-2.7300
1271.4820;-27.2400;-24.3900;-2.8500
1271.6810;-27.2300;-24.2600;-2.9700
1271.8810;-27.1800;-24.1500;-3.0300
1272.0800;-27.1200;-24.0300;-3.0900
1272.2790;-27.0300;-23.9100;-3.1200
1272.4780;-26.9200;-23.8200;-3.1000
1272.6770;-26.7900;-23.7000;-3.0900
1272.8760;-26.6300;-23.6100;-3.0200
1273.0750;-26.4800;-23.5000;-2.9800
1273.2740;-26.3100;-23.4000;-2.9100
1273.4740;-26.1500;-23.3200;-2.8300
1273.6730;-25.9800;-23.2100;-2.7700
1273.8720;-25.8600;-23.1300;-2.7300
1274.0710;-25.7600;-23.0300;-2.7300
1274.2700;-25.6600;-22.9300;-2.7300
1274.4690;-25.6100;-22.8500;-2.7600
1274.6680;-25.5800;-22.7500;-2.8300
1274.8670;-25.5900;-22.6600;-2.9300
1275.0660;-25.6400;-22.5600;-3.0800
1275.2660;-25.7200;-22.4700;-3.2500
1275.4650;-25.8700;-22.3800;-3.4900
1275.6640;-26.0300;-22.2700;-3.7600
1275.8630;-26.2600;-22.1800;-4.0800
1276.0620;-26.5400;-22.0700;-4.4700
1276.2610;-26.8500;-21.9700;-4.8800
1276.4600;-27.2200;-21.8700;-5.3500
1276.6590;-27.6100;-21.7500;-5.8600
1276.8580;-28.0300;-21.6600;-6.3700
1277.0580;-28.5400;-21.5400;-7.0000
1277.2570;-28.8700;-21.4500;-7.4200
1277.4560;-29.2000;-21.3500;-7.8500
1277.6550;-29.4200;-21.2400;-8.1800
1277.8540;-29.5000;-21.1600;-8.3400
1278.0530;-29.3800;-21.0500;-8.3300
1278.2520;-29.0900;-20.9600;-8.1300
1278.4510;-28.6400;-20.8700;-7.7700
1278.6500;-28.0700;-20.7700;-7.3000
1278.8500;-27.4500;-20.7000;-6.7500
1279.0490;-26.7900;-20.6000;-6.1900
1279.2480;-26.1500;-20.5200;-5.6300
1279.4470;-25.4200;-20.4400;-4.9800
1279.6460;-24.9500;-20.3500;-4.6000
1279.8450;-24.4200;-20.2800;-4.1400
1280.0440;-23.9400;-20.1900;-3.7500
1280.2430;-23.5200;-20.1300;-3.3900
1280.4430;-23.1500;-20.0400;-3.1100
1280.6420;-22.8500;-19.9700;-2.8800
1280.8410;-22.5900;-19.9000;-2.6900
1281.0400;-22.3900;-19.8200;-2.5700
1281.2390;-22.2600;-19.7500;-2.5100
1281.4380;-22.1800;-19.6700;-2.5100
1281.6370;-22.1800;-19.6000;-2.5800
1281.8360;-22.2200;-19.5300;-2.6900
1282.0350;-22.3300;-19.4500;-2.8800
1282.2350;-22.5200;-19.3900;-3.1300
1282.4340;-22.7900;-19.3000;-3.4900
1282.6330;-23.1600;-19.2400;-3.9200
1282.8320;-23.5900;-19.1700;-4.4200
1283.0310;-24.1500;-19.0900;-5.0600
1283.2300;-24.8100;-19.0200;-5.7900
1283.4290;-25.6000;-18.9400;-6.6600
1283.6280;-26.5700;-18.8700;-7.7000
1283.8270;-27.7000;-18.8000;-8.9000
1284.0270;-29.3500;-18.7200;-10.6300
1284.2260;-30.6000;-18.6600;-11.9400
1284.4250;-32.2000;-18.5800;-13.6200
1284.6240;-33.4800;-18.5100;-14.9700
1284.8230;-33.7000;-18.4300;-15.2700
1285.0220;-32.6600;-18.3600;-14.3000
1285.2210;-30.9100;-18.3000;-12.6100
1285.4200;-29.1400;-18.2200;-10.9200
1285.6200;-27.5000;-18.1600;-9.3400
1285.8190;-25.8800;-18.1000;-7.7800
1286.0180;-24.8700;-18.0300;-6.8400
1286.2170;-23.8200;-17.9800;-5.8400
1286.4160;-22.9200;-17.9100;-5.0100
1286.6150;-22.1400;-17.8800;-4.2600
1286.8140;-21.4700;-17.8200;-3.6500
1287.0130;-20.8900;-17.7600;-3.1300
1287.2120;-20.4000;-17.7200;-2.6800
1287.4120;-20.0200;-17.6600;-2.3600
1287.6110;-19.6900;-17.6300;-2.0600
1287.8100;-19.4600;-17.5700;-1.8900
1288.0090;-19.2800;-17.5200;-1.7600
1288.2080;-19.1800;-17.4800;-1.7000
1288.4070;-19.1700;-17.4300;-1.7400
1288.6060;-19.2100;-17.4000;-1.8100
1288.8050;-19.3400;-17.3400;-2.0000
1289.0040;-19.5300;-17.3000;-2.2300
1289.2040;-19.8100;-17.2500;-2.5600
1289.4030;-20.1800;-17.1900;-2.9900
1289.6020;-20.6300;-17.1600;-3.4700
1289.8010;-21.2000;-17.0900;-4.1100
1290.0000;-21.8600;-17.0400;-4.8200
1290.1990;-22.6500;-16.9900;-5.6600
1290.3980;-23.6000;-16.9300;-6.6700
1290.5970;-24.7400;-16.8900;-7.8500
1290.7970;-26.0700;-16.8200;-9.2500
1290.9960;-27.5600;-16.7600;-10.8000
1291.1950;-29.5400;-16.7000;-12.8400
1291.3940;-30.6300;-16.6400;-13.9900
1291.5930;-31.1700;-16.5800;-14.5900
1291.7920;-30.4500;-16.5200;-13.9300
1291.9910;-28.9200;-16.4800;-12.4400
1292.1900;-27.2200;-16.4200;-10.8000
1292.3890;-25.3900;-16.3800;-9.0100
1292.5890;-24.2300;-16.3300;-7.9000
1292.7880;-23.0300;-16.2800;-6.7500
1292.9870;-22.0100;-16.2500;-5.7600
1293.1860;-21.1200;-16.2100;-4.9100
1293.3850;-20.3700;-16.1800;-4.1900
1293.5840;-19.7200;-16.1400;-3.5800
1293.7830;-19.1700;-16.1200;-3.0500
1293.9820;-18.7300;-16.0900;-2.6400
1294.1810;-18.3500;-16.0700;-2.2800
1294.3810;-18.0700;-16.0600;-2.0100
1294.5800;-17.8400;-16.0200;-1.8200
1294.7790;-17.6900;-16.0100;-1.6800
1294.9780;-17.6200;-15.9800;-1.6400
1295.1770;-17.5900;-15.9600;-1.6300
1295.3760;-17.6500;-15.9400;-1.7100
1295.5750;-17.7500;-15.9000;-1.8500
1295.7740;-17.9300;-15.8900;-2.0400
1295.9740;-18.1700;-15.8400;-2.3300
1296.1730;-18.4800;-15.8200;-2.6600
1296.3720;-18.8700;-15.7900;-3.0800
1296.5710;-19.3100;-15.7400;-3.5700
1296.7700;-19.8400;-15.7200;-4.1200
1296.9690;-20.4500;-15.6800;-4.7700
1297.1680;-21.1400;-15.6500;-5.4900
1297.3670;-21.9100;-15.6100;-6.3000
1297.5660;-22.7200;-15.5600;-7.1600
1297.7660;-23.6100;-15.5400;-8.0700
1297.9650;-24.4900;-15.4900;-9.0000
1298.1640;-25.3000;-15.4600;-9.8400
1298.3630;-25.9500;-15.4300;-10.5200
1298.5620;-26.2600;-15.3800;-10.8800
1298.7610;-26.2200;-15.3600;-10.8600
1298.9600;-25.8300;-15.3300;-10.5000
1299.1590;-25.2000;-15.3200;-9.8800
1299.3580;-24.4700;-15.2900;-9.1800
1299.5580;-23.6900;-15.2600;-8.4300
1299.7570;-22.9700;-15.2500;-7.7200
1299.9560;-22.3000;-15.2400;-7.0600
1300.1550;-21.7000;-15.2400;-6.4600
1300.3540;-21.2000;-15.2200;-5.9800
1300.5530;-20.7600;-15.2100;-5.5500
1300.7520;-20.4200;-15.2100;-5.2100
1300.9510;-20.1400;-15.2000;-4.9400
1301.1500;-19.9500;-15.2200;-4.7300
1301.3500;-19.8300;-15.2100;-4.6200
1301.5490;-19.7800;-15.2200;-4.5600
1301.7480;-19.8000;-15.2200;-4.5800
1301.9470;-19.8700;-15.2200;-4.6500
1302.1460;-20.0200;-15.2400;-4.7800
1302.3450;-20.2200;-15.2300;-4.9900
1302.5440;-20.4800;-15.2500;-5.2300
1302.7430;-20.8000;-15.2400;-5.5600
1302.9430;-21.1300;-15.2400;-5.8900
1303.1420;-21.5200;-15.2600;-6.2600
1303.3410;-21.8900;-15.2500;-6.6400
1303.5400;-22.2500;-15.2700;-6.9800
1303.7390;-22.5600;-15.2500;-7.3100
1303.9380;-22.7500;-15.2600;-7.4900
1304.1370;-22.8400;-15.2700;-7.5700
1304.3360;-22.7500;-15.2700;-7.4800
1304.5350;-22.5200;-15.2800;-7.2400
1304.7350;-22.1600;-15.2700;-6.8900
1304.9340;-21.6900;-15.2800;-6.4100
1305.1330;-21.1800;-15.2800;-5.9000
1305.3320;-20.6300;-15.2800;-5.3500
1305.5310;-20.1000;-15.3100;-4.7900
1305.7300;-19.5800;-15.3000;-4.2800
1305.9290;-19.0900;-15.3100;-3.7800
1306.1280;-18.6700;-15.3200;-3.3500
1306.3270;-18.2700;-15.3300;-2.9400
1306.5270;-17.9500;-15.3600;-2.5900
1306.7260;-17.6600;-15.3700;-2.2900
1306.9250;-17.4200;-15.3900;-2.0300
1307.1240;-17.2700;-15.4000;-1.8700
1307.3230;-17.1300;-15.4200;-1.7100
1307.5220;-17.0900;-15.4600;-1.6300
1307.7210;-17.0700;-15.4700;-1.6000
1307.9200;-17.1200;-15.4900;-1.6300
1308.1200;-17.2400;-15.5200;-1.7200
1308.3190;-17.4000;-15.5400;-1.8600
1308.5180;-17.6300;-15.5700;-2.0600
1308.7170;-17.9100;-15.5900;-2.3200
1308.9160;-18.2600;-15.6200;-2.6400
1309.1150;-18.6800;-15.6400;-3.0400
1309.3140;-19.1500;-15.6700;-3.4800
1309.5130;-19.7200;-15.7000;-4.0200
1309.7120;-20.3200;-15.7100;-4.6100
1309.9120;-20.9800;-15.7500;-5.2300
