Wavelength;Intensity_Meas;Intensity_Ref;Difference_dB
1200.0000;-62.2200;-57.0700;-5.1500
1200.1990;-62.2200;-57.0400;-5.1800
1200.3980;-62.1500;-57.0000;-5.1500
1200.5970;-62.0800;-56.9900;-5.0900
1200.7970;-62.0100;-56.9700;-5.0400
1200.9960;-61.9900;-56.9200;-5.0700
1201.1950;-61.9600;-56.8900;-5.0700
1201.3940;-61.8300;-56.8600;-4.9700
1201.5930;-61.7300;-56.8100;-4.9200
1201.7920;-61.6900;-56.7700;-4.9200
1201.9910;-61.6500;-56.7100;-4.9400
1202.1900;-61.5500;-56.6600;-4.8900
1202.3890;-61.5000;-56.6200;-4.8800
1202.5890;-61.4700;-56.5700;-4.9000
1202.7880;-61.4200;-56.5200;-4.9000
1202.9870;-61.3700;-56.4600;-4.9100
1203.1860;-61.2800;-56.4100;-4.8700
1203.3850;-61.2100;-56.3700;-4.8400
1203.5840;-61.2000;-56.3200;-4.8800
1203.7830;-61.2100;-56.2800;-4.9300
1203.9820;-61.1400;-56.2400;-4.9000
1204.1810;-61.0700;-56.1900;-4.8800
1204.3810;-61.0700;-56.1700;-4.9000
1204.5800;-61.1100;-56.1300;-4.9800
1204.7790;-61.0400;-56.0900;-4.9500
1204.9780;-61.0400;-56.0600;-4.9800
1205.1770;-61.0700;-56.0400;-5.0300
1205.3760;-61.0800;-56.0100;-5.0700
1205.5750;-61.1400;-55.9900;-5.1500
1205.7740;-61.1000;-55.9800;-5.1200
1205.9740;-61.1100;-55.9500;-5.1600
1206.1730;-61.1500;-55.9400;-5.2100
1206.3720;-61.1600;-55.9300;-5.2300
1206.5710;-61.1500;-55.9100;-5.2400
1206.7700;-61.1100;-55.8800;-5.2300
1206.9690;-61.1300;-55.8600;-5.2700
1207.1680;-61.1200;-55.8300;-5.2900
1207.3670;-61.0500;-55.8100;-5.2400
1207.5660;-61.0100;-55.7800;-5.2300
1207.7660;-60.9200;-55.7500;-5.1700
1207.9650;-60.8900;-55.7100;-5.1800
1208.1640;-60.8200;-55.6800;-5.1400
1208.3630;-60.7100;-55.6600;-5.0500
1208.5620;-60.6200;-55.6000;-5.0200
1208.7610;-60.5700;-55.5600;-5.0100
1208.9600;-60.5200;-55.5100;-5.0100
1209.1590;-60.4000;-55.4500;-4.9500
1209.3580;-60.2900;-55.4100;-4.8800
1209.5580;-60.2900;-55.3600;-4.9300
1209.7570;-60.2100;-55.3100;-4.9000
1209.9560;-60.1300;-55.2600;-4.8700
1210.1550;-60.0800;-55.2100;-4.8700
1210.3540;-60.0200;-55.1800;-4.8400
1210.5530;-60.0200;-55.1100;-4.9100
1210.7520;-60.0000;-55.0700;-4.9300
1210.9510;-59.9500;-55.0300;-4.9200
1211.1500;-59.9300;-54.9800;-4.9500
1211.3500;-59.9600;-54.9500;-5.0100
1211.5490;-59.9900;-54.9100;-5.0800
1211.7480;-59.9500;-54.8700;-5.0800
1211.9470;-59.9800;-54.8400;-5.1400
1212.1460;-60.0100;-54.8100;-5.2000
1212.3450;-60.0500;-54.7800;-5.2700
1212.5440;-60.0700;-54.7600;-5.3100
1212.7430;-60.0800;-54.7400;-5.3400
1212.9430;-60.1200;-54.7100;-5.4100
1213.1420;-60.1700;-54.6700;-5.5000
1213.3410;-60.1300;-54.6500;-5.4800
1213.5400;-60.1300;-54.6200;-5.5100
1213.7390;-60.1100;-54.6000;-5.5100
1213.9380;-60.1000;-54.5600;-5.5400
1214.1370;-60.0200;-54.5300;-5.4900
1214.3360;-59.9200;-54.5100;-5.4100
1214.5350;-59.8900;-54.4600;-5.4300
1214.7350;-59.8000;-54.4300;-5.3700
1214.9340;-59.7100;-54.3900;-5.3200
1215.1330;-59.5700;-54.3400;-5.2300
1215.3320;-59.4800;-54.3000;-5.1800
1215.5310;-59.4100;-54.2500;-5.1600
1215.7300;-59.3000;-54.2000;-5.1000
1215.9290;-59.1800;-54.1500;-5.0300
1216.1280;-59.0500;-54.1000;-4.9500
1216.3270;-58.9700;-54.0400;-4.9300
1216.5270;-58.9000;-53.9900;-4.9100
1216.7260;-58.7800;-53.9300;-4.8500
1216.9250;-58.6800;-53.8800;-4.8000
1217.1240;-58.6100;-53.8100;-4.8000
1217.3230;-58.5700;-53.7700;-4.8000
1217.5220;-58.5200;-53.7200;-4.8000
1217.7210;-58.4400;-53.6700;-4.7700
1217.9200;-58.4400;-53.6200;-4.8200
1218.1200;-58.4500;-53.5700;-4.8800
1218.3190;-58.4300;-53.5300;-4.9000
1218.5180;-58.4500;-53.4800;-4.9700
1218.7170;-58.5000;-53.4500;-5.0500
1218.9160;-58.5600;-53.4100;-5.1500
1219.1150;-58.6000;-53.3600;-5.2400
1219.3140;-58.6600;-53.3500;-5.3100
1219.5130;-58.7400;-53.3200;-5.4200
1219.7120;-58.8100;-53.2800;-5.5300
1219.9120;-58.8900;-53.2400;-5.6500
1220.1110;-58.9000;-53.2100;-5.6900
1220.3100;-58.9200;-53.1800;-5.7400
1220.5090;-58.9600;-53.1400;-5.8200
1220.7080;-58.9400;-53.1100;-5.8300
1220.9070;-58.8800;-53.0700;-5.8100
1221.1060;-58.8200;-53.0200;-5.8000
1221.3050;-58.7600;-52.9800;-5.7800
1221.5040;-58.6600;-52.9100;-5.7500
1221.7040;-58.5300;-52.8700;-5.6600
1221.9030;-58.4100;-52.8100;-5.6000
1222.1020;-58.2800;-52.7400;-5.5400
1222.3010;-58.1500;-52.7000;-5.4500
1222.5000;-57.9800;-52.6200;-5.3600
1222.6990;-57.8100;-52.5600;-5.2500
1222.8980;-57.7000;-52.4900;-5.2100
1223.0970;-57.5500;-52.4200;-5.1300
1223.2970;-57.3800;-52.3700;-5.0100
1223.4960;-57.2300;-52.2800;-4.9500
1223.6950;-57.1200;-52.2200;-4.9000
1223.8940;-57.0200;-52.1600;-4.8600
1224.0930;-56.8600;-52.0800;-4.7800
1224.2920;-56.7500;-52.0300;-4.7200
1224.4910;-56.6700;-51.9500;-4.7200
1224.6900;-56.5900;-51.8900;-4.7000
1224.8890;-56.5200;-51.8300;-4.6900
1225.0890;-56.4400;-51.7700;-4.6700
1225.2880;-56.4000;-51.7200;-4.6800
1225.4870;-56.3900;-51.6500;-4.7400
1225.6860;-56.3500;-51.6100;-4.7400
1225.8850;-56.3400;-51.5600;-4.7800
1226.0840;-56.3400;-51.5000;-4.8400
1226.2830;-56.3500;-51.4700;-4.8800
1226.4820;-56.3300;-51.4000;-4.9300
1226.6810;-56.3100;-51.3600;-4.9500
1226.8810;-56.3300;-51.3100;-5.0200
1227.0800;-56.2900;-51.2500;-5.0400
1227.2790;-56.2400;-51.2200;-5.0200
1227.4780;-56.1800;-51.1500;-5.0300
1227.6770;-56.1200;-51.1000;-5.0200
1227.8760;-56.0500;-51.0500;-5.0000
1228.0750;-55.9300;-50.9800;-4.9500
1228.2740;-55.8200;-50.9300;-4.8900
1228.4740;-55.6900;-50.8500;-4.8400
1228.6730;-55.5900;-50.7900;-4.8000
1228.8720;-55.4900;-50.7300;-4.7600
1229.0710;-55.3700;-50.6500;-4.7200
1229.2700;-55.3000;-50.5900;-4.7100
1229.4690;-55.2000;-50.5000;-4.7000
1229.6680;-55.1100;-50.4300;-4.6800
1229.8670;-55.0500;-50.3500;-4.7000
1230.0660;-55.0100;-50.2700;-4.7400
1230.2660;-54.9700;-50.2100;-4.7600
1230.4650;-54.9300;-50.1100;-4.8200
1230.6640;-54.9300;-50.0300;-4.9000
1230.8630;-54.9800;-49.9800;-5.0000
1231.0620;-54.9900;-49.9000;-5.0900
1231.2610;-55.0400;-49.8500;-5.1900
1231.4600;-55.1100;-49.7900;-5.3200
1231.6590;-55.1900;-49.7200;-5.4700
1231.8580;-55.2800;-49.6600;-5.6200
1232.0580;-55.3700;-49.6000;-5.7700
1232.2570;-55.4900;-49.5500;-5.9400
1232.4560;-55.5900;-49.4900;-6.1000
1232.6550;-55.6700;-49.4400;-6.2300
1232.8540;-55.7400;-49.3700;-6.3700
1233.0530;-55.8100;-49.3200;-6.4900
1233.2520;-55.8400;-49.2800;-6.5600
1233.4510;-55.7900;-49.2100;-6.5800
1233.6500;-55.7500;-49.1700;-6.5800
1233.8500;-55.6600;-49.1000;-6.5600
1234.0490;-55.5300;-49.0400;-6.4900
1234.2480;-55.3600;-48.9800;-6.3800
1234.4470;-55.1400;-48.9000;-6.2400
1234.6460;-54.9500;-48.8500;-6.1000
1234.8450;-54.7300;-48.7800;-5.9500
1235.0440;-54.4800;-48.7000;-5.7800
1235.2430;-54.2700;-48.6300;-5.6400
1235.4430;-54.0400;-48.5400;-5.5000
1235.6420;-53.8200;-48.4800;-5.3400
1235.8410;-53.6200;-48.3800;-5.2400
1236.0400;-53.4400;-48.3000;-5.1400
1236.2390;-53.2900;-48.2100;-5.0800
1236.4380;-53.1300;-48.1100;-5.0200
1236.6370;-53.0000;-48.0400;-4.9600
1236.8360;-52.9000;-47.9400;-4.9600
1237.0350;-52.8200;-47.8600;-4.9600
1237.2350;-52.7600;-47.7700;-4.9900
1237.4340;-52.6900;-47.6800;-5.0100
1237.6330;-52.6700;-47.6100;-5.0600
1237.8320;-52.6700;-47.5200;-5.1500
1238.0310;-52.6500;-47.4400;-5.2100
1238.2300;-52.6700;-47.3600;-5.3100
1238.4290;-52.6700;-47.2700;-5.4000
1238.6280;-52.7200;-47.2100;-5.5100
1238.8270;-52.7300;-47.1200;-5.6100
1239.0270;-52.7500;-47.0600;-5.6900
1239.2260;-52.7800;-46.9600;-5.8200
1239.4250;-52.7800;-46.8800;-5.9000
1239.6240;-52.7700;-46.8100;-5.9600
1239.8230;-52.7300;-46.7200;-6.0100
1240.0220;-52.6900;-46.6500;-6.0400
1240.2210;-52.6200;-46.5400;-6.0800
1240.4200;-52.5000;-46.4500;-6.0500
1240.6200;-52.4000;-46.3700;-6.0300
1240.8190;-52.2700;-46.2600;-6.0100
1241.0180;-52.1000;-46.1600;-5.9400
1241.2170;-51.9600;-46.0400;-5.9200
1241.4160;-51.8000;-45.9100;-5.8900
1241.6150;-51.6600;-45.8000;-5.8600
1241.8140;-51.5200;-45.6900;-5.8300
1242.0130;-51.3900;-45.5700;-5.8200
1242.2120;-51.3000;-45.4400;-5.8600
1242.4120;-51.1900;-45.3300;-5.8600
1242.6110;-51.1000;-45.1800;-5.9200
1242.8100;-51.0300;-45.0600;-5.9700
1243.0090;-50.9700;-44.9200;-6.0500
1243.2080;-50.9200;-44.8000;-6.1200
1243.4070;-50.8500;-44.6800;-6.1700
1243.6060;-50.8000;-44.5300;-6.2700
1243.8050;-50.7300;-44.4100;-6.3200
1244.0040;-50.6300;-44.2800;-6.3500
1244.2040;-50.5300;-44.1500;-6.3800
1244.4030;-50.4100;-44.0300;-6.3800
1244.6020;-50.2500;-43.8800;-6.3700
1244.8010;-50.0700;-43.7600;-6.3100
1245.0000;-49.8700;-43.6400;-6.2300
1245.1990;-49.6600;-43.5100;-6.1500
1245.3980;-49.4200;-43.4000;-6.0200
1245.5970;-49.1600;-43.2500;-5.9100
1245.7970;-48.8900;-43.1300;-5.7600
1245.9960;-48.6100;-42.9900;-5.6200
1246.1950;-48.3400;-42.8500;-5.4900
1246.3940;-48.0600;-42.7300;-5.3300
1246.5930;-47.8100;-42.5700;-5.2400
1246.7920;-47.5500;-42.4300;-5.1200
1246.9910;-47.2900;-42.2800;-5.0100
1247.1900;-47.0900;-42.1200;-4.9700
1247.3890;-46.8900;-41.9800;-4.9100
1247.5890;-46.7100;-41.8100;-4.9000
1247.7880;-46.5600;-41.6600;-4.9000
1247.9870;-46.4400;-41.4900;-4.9500
1248.1860;-46.3600;-41.3300;-5.0300
1248.3850;-46.3000;-41.1800;-5.1200
1248.5840;-46.2800;-41.0000;-5.2800
1248.7830;-46.2700;-40.8400;-5.4300
1248.9820;-46.3000;-40.6800;-5.6200
1249.1810;-46.3500;-40.5200;-5.8300
1249.3810;-46.4000;-40.3600;-6.0400
1249.5800;-46.4500;-40.1800;-6.2700
1249.7790;-46.4800;-40.0300;-6.4500
1249.9780;-46.4700;-39.8600;-6.6100
1250.1770;-46.4400;-39.7000;-6.7400
1250.3760;-46.3300;-39.5600;-6.7700
1250.5750;-46.1500;-39.3900;-6.7600
1250.7740;-45.8900;-39.2300;-6.6600
1250.9740;-45.5500;-39.0900;-6.4600
1251.1730;-45.2000;-38.9300;-6.2700
1251.3720;-44.7600;-38.7900;-5.9700
1251.5710;-44.3000;-38.6400;-5.6600
1251.7700;-43.8000;-38.4900;-5.3100
1251.9690;-43.3000;-38.3300;-4.9700
1252.1680;-42.7800;-38.1700;-4.6100
1252.3670;-42.3000;-38.0300;-4.2700
1252.5660;-41.8300;-37.8700;-3.9600
1252.7660;-41.3900;-37.7100;-3.6800
1252.9650;-41.0000;-37.5600;-3.4400
1253.1640;-40.6200;-37.3900;-3.2300
1253.3630;-40.2900;-37.2400;-3.0500
1253.5620;-40.0100;-37.0800;-2.9300
1253.7610;-39.7700;-36.9200;-2.8500
1253.9600;-39.5900;-36.7600;-2.8300
1254.1590;-39.4400;-36.5900;-2.8500
1254.3580;-39.3600;-36.4400;-2.9200
1254.5580;-39.3300;-36.2700;-3.0600
1254.7570;-39.3500;-36.1200;-3.2300
1254.9560;-39.4500;-35.9500;-3.5000
1255.1550;-39.6000;-35.7800;-3.8200
1255.3540;-39.8100;-35.6400;-4.1700
1255.5530;-40.0800;-35.4900;-4.5900
1255.7520;-40.4000;-35.3400;-5.0600
1255.9510;-40.7900;-35.1700;-5.6200
1256.1500;-41.2200;-35.0400;-6.1800
1256.3500;-41.6900;-34.8700;-6.8200
1256.5490;-42.1600;-34.7200;-7.4400
1256.7480;-42.6000;-34.5700;-8.0300
1256.9470;-42.9700;-34.4200;-8.5500
1257.1460;-43.1900;-34.2700;-8.9200
1257.3450;-43.2300;-34.1000;-9.1300
1257.5440;-43.0300;-33.9600;-9.0700
1257.7430;-42.6100;-33.8100;-8.8000
1257.9430;-42.0100;-33.6500;-8.3600
1258.1420;-41.2800;-33.5100;-7.7700
1258.3410;-40.5100;-33.3400;-7.1700
1258.5400;-39.7000;-33.1900;-6.5100
1258.7390;-38.9100;-33.0300;-5.8800
1258.9380;-38.1600;-32.8700;-5.2900
1259.1370;-37.4600;-32.7300;-4.7300
1259.3360;-36.8300;-32.5600;-4.2700
1259.5350;-36.2400;-32.4200;-3.8200
1259.7350;-35.6400;-32.2700;-3.3700
1259.9340;-35.2600;-32.1100;-3.1500
1260.1330;-34.8800;-31.9700;-2.9100
1260.3320;-34.5500;-31.8100;-2.7400
1260.5310;-34.2900;-31.6800;-2.6100
1260.7300;-34.1000;-31.5300;-2.5700
1260.9290;-33.9600;-31.3800;-2.5800
1261.1280;-33.8900;-31.2500;-2.6400
1261.3270;-33.8900;-31.0900;-2.8000
1261.5270;-33.9500;-30.9700;-2.9800
1261.7260;-34.0900;-30.8200;-3.2700
1261.9250;-34.2800;-30.6800;-3.6000
1262.1240;-34.5500;-30.5500;-4.0000
1262.3230;-34.8800;-30.4000;-4.4800
1262.5220;-35.2800;-30.2700;-5.0100
1262.7210;-35.7500;-30.1300;-5.6200
1262.9200;-36.2400;-29.9800;-6.2600
1263.1200;-36.7800;-29.8500;-6.9300
1263.3190;-37.3100;-29.6900;-7.6200
1263.5180;-37.7900;-29.5600;-8.2300
1263.7170;-38.2100;-29.4100;-8.8000
1263.9160;-38.2700;-29.2600;-9.0100
1264.1150;-38.1300;-29.1300;-9.0000
1264.3140;-37.7100;-28.9600;-8.7500
1264.5130;-37.0700;-28.8300;-8.2400
1264.7120;-36.2900;-28.6800;-7.6100
1264.9120;-35.2900;-28.5300;-6.7600
1265.1110;-34.5700;-28.3900;-6.1800
1265.3100;-33.7300;-28.2300;-5.5000
1265.5090;-32.9600;-28.1000;-4.8600
1265.7080;-32.2400;-27.9500;-4.2900
1265.9070;-31.5900;-27.8100;-3.7800
1266.1060;-31.0200;-27.6800;-3.3400
1266.3050;-30.5000;-27.5400;-2.9600
1266.5040;-30.0800;-27.4200;-2.6600
1266.7040;-29.7000;-27.2900;-2.4100
1266.9030;-29.4100;-27.1600;-2.2500
1267.1020;-29.1900;-27.0400;-2.1500
1267.3010;-29.0200;-26.9100;-2.1100
1267.5000;-28.9400;-26.8000;-2.1400
1267.6990;-28.9100;-26.6800;-2.2300
1267.8980;-28.9600;-26.5600;-2.4000
1268.0970;-29.1000;-26.4600;-2.6400
1268.2970;-29.2800;-26.3300;-2.9500
1268.4960;-29.5700;-26.2300;-3.3400
1268.6950;-29.9200;-26.0800;-3.8400
1268.8940;-30.3600;-25.9900;-4.3700
1269.0930;-30.9200;-25.8800;-5.0400
1269.2920;-31.5600;-25.7500;-5.8100
1269.4910;-32.3400;-25.6500;-6.6900
1269.6900;-33.2300;-25.5100;-7.7200
1269.8890;-34.2500;-25.3900;-8.8600
1270.0890;-35.4000;-25.2600;-10.1400
1270.2880;-36.5600;-25.1300;-11.4300
1270.4870;-37.6100;-25.0300;-12.5800
1270.6860;-38.1300;-24.8900;-13.2400
1270.8850;-37.8700;-24.7600;-13.1100
1271.0840;-36.8700;-24.6300;-12.2400
1271.2830;-35.5000;-24.5100;-10.9900
1271.4820;-34.0900;-24.3900;-9.7000
1271.6810;-32.7500;-24.2600;-8.4900
1271.8810;-31.5400;-24.1500;-7.3900
1272.0800;-30.4700;-24.0300;-6.4400
1272.2790;-29.5400;-23.9100;-5.6300
1272.4780;-28.7400;-23.8200;-4.9200
1272.6770;-28.0200;-23.7000;-4.3200
1272.8760;-27.4200;-23.6100;-3.8100
1273.0750;-26.8900;-23.5000;-3.3900
1273.2740;-26.4500;-23.4000;-3.0500
1273.4740;-26.0200;-23.3200;-2.7000
1273.6730;-25.7900;-23.2100;-2.5800
1273.8720;-25.5600;-23.1300;-2.4300
1274.0710;-25.3800;-23.0300;-2.3500
1274.2700;-25.2700;-22.9300;-2.3400
1274.4690;-25.2000;-22.8500;-2.3500
1274.6680;-25.2000;-22.7500;-2.4500
1274.8670;-25.2500;-22.6600;-2.5900
1275.0660;-25.3400;-22.5600;-2.7800
1275.2660;-25.5100;-22.4700;-3.0400
1275.4650;-25.7000;-22.3800;-3.3200
1275.6640;-25.9500;-22.2700;-3.6800
1275.8630;-26.2500;-22.1800;-4.0700
1276.0620;-26.5800;-22.0700;-4.5100
1276.2610;-26.9600;-21.9700;-4.9900
1276.4600;-27.3400;-21.8700;-5.4700
1276.6590;-27.7100;-21.7500;-5.9600
1276.8580;-28.0600;-21.6600;-6.4000
1277.0580;-28.4000;-21.5400;-6.8600
1277.2570;-28.5200;-21.4500;-7.0700
1277.4560;-28.5600;-21.3500;-7.2100
1277.6550;-28.4600;-21.2400;-7.2200
1277.8540;-28.1900;-21.1600;-7.0300
1278.0530;-27.8200;-21.0500;-6.7700
1278.2520;-27.3400;-20.9600;-6.3800
1278.4510;-26.8200;-20.8700;-5.9500
1278.6500;-26.2900;-20.7700;-5.5200
1278.8500;-25.6600;-20.7000;-4.9600
1279.0490;-25.2400;-20.6000;-4.6400
1279.2480;-24.7500;-20.5200;-4.2300
1279.4470;-24.3100;-20.4400;-3.8700
1279.6460;-23.8900;-20.3500;-3.5400
1279.8450;-23.5200;-20.2800;-3.2400
1280.0440;-23.1900;-20.1900;-3.0000
1280.2430;-22.9000;-20.1300;-2.7700
1280.4430;-22.6700;-20.0400;-2.6300
1280.6420;-22.4500;-19.9700;-2.4800
1280.8410;-22.2800;-19.9000;-2.3800
1281.0400;-22.1400;-19.8200;-2.3200
1281.2390;-22.0400;-19.7500;-2.2900
1281.4380;-21.9900;-19.6700;-2.3200
1281.6370;-21.9400;-19.6000;-2.3400
1281.8360;-21.9300;-19.5300;-2.4000
1282.0350;-21.9400;-19.4500;-2.4900
1282.2350;-21.9700;-19.3900;-2.5800
1282.4340;-22.0200;-19.3000;-2.7200
1282.6330;-22.0600;-19.2400;-2.8200
1282.8320;-22.1000;-19.1700;-2.9300
1283.0310;-22.1200;-19.0900;-3.0300
1283.2300;-22.1200;-19.0200;-3.1000
1283.4290;-22.1100;-18.9400;-3.1700
1283.6280;-22.0400;-18.8700;-3.1700
1283.8270;-21.9600;-18.8000;-3.1600
1284.0270;-21.8200;-18.7200;-3.1000
1284.2260;-21.6600;-18.6600;-3.0000
1284.4250;-21.4800;-18.5800;-2.9000
1284.6240;-21.2600;-18.5100;-2.7500
1284.8230;-21.0500;-18.4300;-2.6200
1285.0220;-20.8100;-18.3600;-2.4500
1285.2210;-20.5700;-18.3000;-2.2700
1285.4200;-20.3600;-18.2200;-2.1400
1285.6200;-20.1400;-18.1600;-1.9800
1285.8190;-19.9600;-18.1000;-1.8600
1286.0180;-19.7800;-18.0300;-1.7500
1286.2170;-19.6400;-17.9800;-1.6600
1286.4160;-19.5400;-17.9100;-1.6300
1286.6150;-19.4600;-17.8800;-1.5800
1286.8140;-19.4300;-17.8200;-1.6100
1287.0130;-19.4100;-17.7600;-1.6500
1287.2120;-19.4300;-17.7200;-1.7100
1287.4120;-19.5000;-17.6600;-1.8400
1287.6110;-19.6000;-17.6300;-1.9700
1287.8100;-19.7500;-17.5700;-2.1800
1288.0090;-19.9100;-17.5200;-2.3900
1288.2080;-20.1100;-17.4800;-2.6300
1288.4070;-20.3400;-17.4300;-2.9100
1288.6060;-20.5700;-17.4000;-3.1700
1288.8050;-20.8300;-17.3400;-3.4900
1289.0040;-21.0500;-17.3000;-3.7500
1289.2040;-21.2700;-17.2500;-4.0200
1289.4030;-21.4500;-17.1900;-4.2600
1289.6020;-21.5600;-17.1600;-4.4000
1289.8010;-21.6100;-17.0900;-4.5200
1290.0000;-21.5600;-17.0400;-4.5200
1290.1990;-21.4300;-16.9900;-4.4400
1290.3980;-21.2200;-16.9300;-4.2900
1290.5970;-20.9400;-16.8900;-4.0500
1290.7970;-20.6200;-16.8200;-3.8000
1290.9960;-20.2300;-16.7600;-3.4700
1291.1950;-19.8600;-16.7000;-3.1600
1291.3940;-19.4700;-16.6400;-2.8300
1291.5930;-19.0900;-16.5800;-2.5100
1291.7920;-18.7500;-16.5200;-2.2300
1291.9910;-18.4300;-16.4800;-1.9500
1292.1900;-18.1500;-16.4200;-1.7300
1292.3890;-17.9100;-16.3800;-1.5300
1292.5890;-17.7000;-16.3300;-1.3700
1292.7880;-17.5600;-16.2800;-1.2800
1292.9870;-17.4500;-16.2500;-1.2000
1293.1860;-17.4100;-16.2100;-1.2000
1293.3850;-17.4000;-16.1800;-1.2200
1293.5840;-17.4500;-16.1400;-1.3100
1293.7830;-17.5500;-16.1200;-1.4300
1293.9820;-17.7100;-16.0900;-1.6200
1294.1810;-17.9500;-16.0700;-1.8800
1294.3810;-18.2300;-16.0600;-2.1700
1294.5800;-18.5900;-16.0200;-2.5700
1294.7790;-19.0100;-16.0100;-3.0000
1294.9780;-19.5100;-15.9800;-3.5300
1295.1770;-20.1100;-15.9600;-4.1500
1295.3760;-20.7700;-15.9400;-4.8300
1295.5750;-21.5300;-15.9000;-5.6300
1295.7740;-22.3700;-15.8900;-6.4800
1295.9740;-23.3000;-15.8400;-7.4600
1296.1730;-24.2800;-15.8200;-8.4600
1296.3720;-25.2300;-15.7900;-9.4400
1296.5710;-26.0300;-15.7400;-10.2900
1296.7700;-26.4900;-15.7200;-10.7700
1296.9690;-26.4800;-15.6800;-10.8000
1297.1680;-25.9900;-15.6500;-10.3400
1297.3670;-25.1600;-15.6100;-9.5500
1297.5660;-24.1800;-15.5600;-8.6200
1297.7660;-23.1600;-15.5400;-7.6200
1297.9650;-22.2200;-15.4900;-6.7300
1298.1640;-21.3200;-15.4600;-5.8600
1298.3630;-20.5200;-15.4300;-5.0900
1298.5620;-19.8100;-15.3800;-4.4300
1298.7610;-19.1800;-15.3600;-3.8200
1298.9600;-18.6500;-15.3300;-3.3200
1299.1590;-18.1700;-15.3200;-2.8500
1299.3580;-17.7800;-15.2900;-2.4900
1299.5580;-17.4400;-15.2600;-2.1800
1299.7570;-17.1700;-15.2500;-1.9200
1299.9560;-16.9600;-15.2400;-1.7200
1300.1550;-16.8000;-15.2400;-1.5600
1300.3540;-16.7100;-15.2200;-1.4900
1300.5530;-16.6400;-15.2100;-1.4300
1300.7520;-16.6400;-15.2100;-1.4300
1300.9510;-16.7100;-15.2000;-1.5100
1301.1500;-16.8100;-15.2200;-1.5900
1301.3500;-16.9600;-15.2100;-1.7500
1301.5490;-17.1600;-15.2200;-1.9400
1301.7480;-17.4000;-15.2200;-2.1800
1301.9470;-17.7000;-15.2200;-2.4800
1302.1460;-18.0400;-15.2400;-2.8000
1302.3450;-18.4300;-15.2300;-3.2000
1302.5440;-18.8600;-15.2500;-3.6100
1302.7430;-19.3400;-15.2400;-4.1000
1302.9430;-19.8600;-15.2400;-4.6200
1303.1420;-20.4200;-15.2600;-5.1600
1303.3410;-21.0300;-15.2500;-5.7800
1303.5400;-21.6400;-15.2700;-6.3700
1303.7390;-22.2700;-15.2500;-7.0200
1303.9380;-22.8800;-15.2600;-7.6200
1304.1370;-23.4700;-15.2700;-8.2000
1304.3360;-24.0100;-15.2700;-8.7400
1304.5350;-24.4500;-15.2800;-9.1700
1304.7350;-24.8000;-15.2700;-9.5300
1304.9340;-25.0100;-15.2800;-9.7300
1305.1330;-25.1400;-15.2800;-9.8600
1305.3320;-25.1700;-15.2800;-9.8900
1305.5310;-25.1100;-15.3100;-9.8000
1305.7300;-25.0200;-15.3000;-9.7200
1305.9290;-24.8800;-15.3100;-9.5700
1306.1280;-24.7400;-15.3200;-9.4200
1306.3270;-24.6100;-15.3300;-9.2800
1306.5270;-24.4700;-15.3600;-9.1100
1306.7260;-24.3600;-15.3700;-8.9900
1306.9250;-24.2200;-15.3900;-8.8300
1307.1240;-24.1000;-15.4000;-8.7000
1307.3230;-23.9600;-15.4200;-8.5400
1307.5220;-23.8100;-15.4600;-8.3500
1307.7210;-23.6500;-15.4700;-8.1800
1307.9200;-23.4300;-15.4900;-7.9400
1308.1200;-23.2000;-15.5200;-7.6800
1308.3190;-22.9100;-15.5400;-7.3700
1308.5180;-22.5900;-15.5700;-7.0200
1308.7170;-22.2200;-15.5900;-6.6300
1308.9160;-21.8200;-15.6200;-6.2000
1309.1150;-21.4200;-15.6400;-5.7800
1309.3140;-20.9900;-15.6700;-5.3200
1309.5130;-20.5700;-15.7000;-4.8700
1309.7120;-20.1600;-15.7100;-4.4500
1309.9120;-19.7600;-15.7500;-4.0100
