Wavelength;Intensity_Meas;Intensity_Ref;Difference_dB
1200.0000;-62.0900;-57.0700;-5.0200
1200.1990;-62.0500;-57.0400;-5.0100
1200.3980;-61.9800;-57.0000;-4.9800
1200.5970;-61.9200;-56.9900;-4.9300
1200.7970;-61.8500;-56.9700;-4.8800
1200.9960;-61.8200;-56.9200;-4.9000
1201.1950;-61.7600;-56.8900;-4.8700
1201.3940;-61.6400;-56.8600;-4.7800
1201.5930;-61.5700;-56.8100;-4.7600
1201.7920;-61.5300;-56.7700;-4.7600
1201.9910;-61.5100;-56.7100;-4.8000
1202.1900;-61.4200;-56.6600;-4.7600
1202.3890;-61.3700;-56.6200;-4.7500
1202.5890;-61.3500;-56.5700;-4.7800
1202.7880;-61.2900;-56.5200;-4.7700
1202.9870;-61.3000;-56.4600;-4.8400
1203.1860;-61.2300;-56.4100;-4.8200
1203.3850;-61.1500;-56.3700;-4.7800
1203.5840;-61.1600;-56.3200;-4.8400
1203.7830;-61.1500;-56.2800;-4.8700
1203.9820;-61.1400;-56.2400;-4.9000
1204.1810;-61.0700;-56.1900;-4.8800
1204.3810;-61.1000;-56.1700;-4.9300
1204.5800;-61.1200;-56.1300;-4.9900
1204.7790;-61.0800;-56.0900;-4.9900
1204.9780;-61.0800;-56.0600;-5.0200
1205.1770;-61.1000;-56.0400;-5.0600
1205.3760;-61.1700;-56.0100;-5.1600
1205.5750;-61.2100;-55.9900;-5.2200
1205.7740;-61.2000;-55.9800;-5.2200
1205.9740;-61.2200;-55.9500;-5.2700
1206.1730;-61.2700;-55.9400;-5.3300
1206.3720;-61.2800;-55.9300;-5.3500
1206.5710;-61.2900;-55.9100;-5.3800
1206.7700;-61.2500;-55.8800;-5.3700
1206.9690;-61.2900;-55.8600;-5.4300
1207.1680;-61.2800;-55.8300;-5.4500
1207.3670;-61.1800;-55.8100;-5.3700
1207.5660;-61.1200;-55.7800;-5.3400
1207.7660;-61.0600;-55.7500;-5.3100
1207.9650;-60.9900;-55.7100;-5.2800
1208.1640;-60.9400;-55.6800;-5.2600
1208.3630;-60.8100;-55.6600;-5.1500
1208.5620;-60.7400;-55.6000;-5.1400
1208.7610;-60.6600;-55.5600;-5.1000
1208.9600;-60.5800;-55.5100;-5.0700
1209.1590;-60.4600;-55.4500;-5.0100
1209.3580;-60.3600;-55.4100;-4.9500
1209.5580;-60.3200;-55.3600;-4.9600
1209.7570;-60.2400;-55.3100;-4.9300
1209.9560;-60.1300;-55.2600;-4.8700
1210.1550;-60.0600;-55.2100;-4.8500
1210.3540;-59.9700;-55.1800;-4.7900
1210.5530;-59.9600;-55.1100;-4.8500
1210.7520;-59.9100;-55.0700;-4.8400
1210.9510;-59.8300;-55.0300;-4.8000
1211.1500;-59.7900;-54.9800;-4.8100
1211.3500;-59.8000;-54.9500;-4.8500
1211.5490;-59.8300;-54.9100;-4.9200
1211.7480;-59.8000;-54.8700;-4.9300
1211.9470;-59.8000;-54.8400;-4.9600
1212.1460;-59.8700;-54.8100;-5.0600
1212.3450;-59.9000;-54.7800;-5.1200
1212.5440;-59.9300;-54.7600;-5.1700
1212.7430;-59.9400;-54.7400;-5.2000
1212.9430;-60.0000;-54.7100;-5.2900
1213.1420;-60.0800;-54.6700;-5.4100
1213.3410;-60.0800;-54.6500;-5.4300
1213.5400;-60.1000;-54.6200;-5.4800
1213.7390;-60.1200;-54.6000;-5.5200
1213.9380;-60.1400;-54.5600;-5.5800
1214.1370;-60.1300;-54.5300;-5.6000
1214.3360;-60.0700;-54.5100;-5.5600
1214.5350;-60.0500;-54.4600;-5.5900
1214.7350;-60.0100;-54.4300;-5.5800
1214.9340;-59.9200;-54.3900;-5.5300
1215.1330;-59.8300;-54.3400;-5.4900
1215.3320;-59.7500;-54.3000;-5.4500
1215.5310;-59.7000;-54.2500;-5.4500
1215.7300;-59.5900;-54.2000;-5.3900
1215.9290;-59.4700;-54.1500;-5.3200
1216.1280;-59.3600;-54.1000;-5.2600
1216.3270;-59.2500;-54.0400;-5.2100
1216.5270;-59.1700;-53.9900;-5.1800
1216.7260;-59.0100;-53.9300;-5.0800
1216.9250;-58.8800;-53.8800;-5.0000
1217.1240;-58.7700;-53.8100;-4.9600
1217.3230;-58.6500;-53.7700;-4.8800
1217.5220;-58.5700;-53.7200;-4.8500
1217.7210;-58.4500;-53.6700;-4.7800
1217.9200;-58.3800;-53.6200;-4.7600
1218.1200;-58.3600;-53.5700;-4.7900
1218.3190;-58.2800;-53.5300;-4.7500
1218.5180;-58.2500;-53.4800;-4.7700
1218.7170;-58.2500;-53.4500;-4.8000
1218.9160;-58.2800;-53.4100;-4.8700
1219.1150;-58.2900;-53.3600;-4.9300
1219.3140;-58.3100;-53.3500;-4.9600
1219.5130;-58.3900;-53.3200;-5.0700
1219.7120;-58.4500;-53.2800;-5.1700
1219.9120;-58.5200;-53.2400;-5.2800
1220.1110;-58.5600;-53.2100;-5.3500
1220.3100;-58.6000;-53.1800;-5.4200
1220.5090;-58.6800;-53.1400;-5.5400
1220.7080;-58.7100;-53.1100;-5.6000
1220.9070;-58.7200;-53.0700;-5.6500
1221.1060;-58.7400;-53.0200;-5.7200
1221.3050;-58.7400;-52.9800;-5.7600
1221.5040;-58.7300;-52.9100;-5.8200
1221.7040;-58.6800;-52.8700;-5.8100
1221.9030;-58.6200;-52.8100;-5.8100
1222.1020;-58.5600;-52.7400;-5.8200
1222.3010;-58.4900;-52.7000;-5.7900
1222.5000;-58.3900;-52.6200;-5.7700
1222.6990;-58.2500;-52.5600;-5.6900
1222.8980;-58.1500;-52.4900;-5.6600
1223.0970;-58.0300;-52.4200;-5.6100
1223.2970;-57.8600;-52.3700;-5.4900
1223.4960;-57.6900;-52.2800;-5.4100
1223.6950;-57.5500;-52.2200;-5.3300
1223.8940;-57.3900;-52.1600;-5.2300
1224.0930;-57.2100;-52.0800;-5.1300
1224.2920;-57.0200;-52.0300;-4.9900
1224.4910;-56.8700;-51.9500;-4.9200
1224.6900;-56.7100;-51.8900;-4.8200
1224.8890;-56.5500;-51.8300;-4.7200
1225.0890;-56.4200;-51.7700;-4.6500
1225.2880;-56.3000;-51.7200;-4.5800
1225.4870;-56.2000;-51.6500;-4.5500
1225.6860;-56.1000;-51.6100;-4.4900
1225.8850;-56.0200;-51.5600;-4.4600
1226.0840;-55.9800;-51.5000;-4.4800
1226.2830;-55.9400;-51.4700;-4.4700
1226.4820;-55.8900;-51.4000;-4.4900
1226.6810;-55.8700;-51.3600;-4.5100
1226.8810;-55.8800;-51.3100;-4.5700
1227.0800;-55.8800;-51.2500;-4.6300
1227.2790;-55.8500;-51.2200;-4.6300
1227.4780;-55.8400;-51.1500;-4.6900
1227.6770;-55.8300;-51.1000;-4.7300
1227.8760;-55.8400;-51.0500;-4.7900
1228.0750;-55.8300;-50.9800;-4.8500
1228.2740;-55.8000;-50.9300;-4.8700
1228.4740;-55.8100;-50.8500;-4.9600
1228.6730;-55.8000;-50.7900;-5.0100
1228.8720;-55.7800;-50.7300;-5.0500
1229.0710;-55.7700;-50.6500;-5.1200
1229.2700;-55.7700;-50.5900;-5.1800
1229.4690;-55.7300;-50.5000;-5.2300
1229.6680;-55.7000;-50.4300;-5.2700
1229.8670;-55.6900;-50.3500;-5.3400
1230.0660;-55.6800;-50.2700;-5.4100
1230.2660;-55.6400;-50.2100;-5.4300
1230.4650;-55.6100;-50.1100;-5.5000
1230.6640;-55.5800;-50.0300;-5.5500
1230.8630;-55.5800;-49.9800;-5.6000
1231.0620;-55.5600;-49.9000;-5.6600
1231.2610;-55.5300;-49.8500;-5.6800
1231.4600;-55.5500;-49.7900;-5.7600
1231.6590;-55.5400;-49.7200;-5.8200
1231.8580;-55.5500;-49.6600;-5.8900
1232.0580;-55.5500;-49.6000;-5.9500
1232.2570;-55.5600;-49.5500;-6.0100
1232.4560;-55.6100;-49.4900;-6.1200
1232.6550;-55.6100;-49.4400;-6.1700
1232.8540;-55.6200;-49.3700;-6.2500
1233.0530;-55.6400;-49.3200;-6.3200
1233.2520;-55.6200;-49.2800;-6.3400
1233.4510;-55.6000;-49.2100;-6.3900
1233.6500;-55.5600;-49.1700;-6.3900
1233.8500;-55.5000;-49.1000;-6.4000
1234.0490;-55.4300;-49.0400;-6.3900
1234.2480;-55.3100;-48.9800;-6.3300
1234.4470;-55.2100;-48.9000;-6.3100
1234.6460;-55.0800;-48.8500;-6.2300
1234.8450;-54.9500;-48.7800;-6.1700
1235.0440;-54.7800;-48.7000;-6.0800
1235.2430;-54.6200;-48.6300;-5.9900
1235.4430;-54.4700;-48.5400;-5.9300
1235.6420;-54.3100;-48.4800;-5.8300
1235.8410;-54.1500;-48.3800;-5.7700
1236.0400;-53.9900;-48.3000;-5.6900
1236.2390;-53.8300;-48.2100;-5.6200
1236.4380;-53.6900;-48.1100;-5.5800
1236.6370;-53.5300;-48.0400;-5.4900
1236.8360;-53.4000;-47.9400;-5.4600
1237.0350;-53.2700;-47.8600;-5.4100
1237.2350;-53.1400;-47.7700;-5.3700
1237.4340;-53.0200;-47.6800;-5.3400
1237.6330;-52.9200;-47.6100;-5.3100
1237.8320;-52.8500;-47.5200;-5.3300
1238.0310;-52.7600;-47.4400;-5.3200
1238.2300;-52.7000;-47.3600;-5.3400
1238.4290;-52.6500;-47.2700;-5.3800
1238.6280;-52.6200;-47.2100;-5.4100
1238.8270;-52.5800;-47.1200;-5.4600
1239.0270;-52.5600;-47.0600;-5.5000
1239.2260;-52.5500;-46.9600;-5.5900
1239.4250;-52.5300;-46.8800;-5.6500
1239.6240;-52.5100;-46.8100;-5.7000
1239.8230;-52.4800;-46.7200;-5.7600
1240.0220;-52.4500;-46.6500;-5.8000
1240.2210;-52.3900;-46.5400;-5.8500
1240.4200;-52.3200;-46.4500;-5.8700
1240.6200;-52.2400;-46.3700;-5.8700
1240.8190;-52.1500;-46.2600;-5.8900
1241.0180;-52.0200;-46.1600;-5.8600
1241.2170;-51.8900;-46.0400;-5.8500
1241.4160;-51.7700;-45.9100;-5.8600
1241.6150;-51.6200;-45.8000;-5.8200
1241.8140;-51.4800;-45.6900;-5.7900
1242.0130;-51.3400;-45.5700;-5.7700
1242.2120;-51.2100;-45.4400;-5.7700
1242.4120;-51.0900;-45.3300;-5.7600
1242.6110;-50.9500;-45.1800;-5.7700
1242.8100;-50.8400;-45.0600;-5.7800
1243.0090;-50.7200;-44.9200;-5.8000
1243.2080;-50.6100;-44.8000;-5.8100
1243.4070;-50.5000;-44.6800;-5.8200
1243.6060;-50.3800;-44.5300;-5.8500
1243.8050;-50.2900;-44.4100;-5.8800
1244.0040;-50.1600;-44.2800;-5.8800
1244.2040;-50.0500;-44.1500;-5.9000
1244.4030;-49.9600;-44.0300;-5.9300
1244.6020;-49.8400;-43.8800;-5.9600
1244.8010;-49.7400;-43.7600;-5.9800
1245.0000;-49.6400;-43.6400;-6.0000
1245.1990;-49.5400;-43.5100;-6.0300
1245.3980;-49.4400;-43.4000;-6.0400
1245.5970;-49.3200;-43.2500;-6.0700
1245.7970;-49.2300;-43.1300;-6.1000
1245.9960;-49.1000;-42.9900;-6.1100
1246.1950;-48.9800;-42.8500;-6.1300
1246.3940;-48.8700;-42.7300;-6.1400
1246.5930;-48.7300;-42.5700;-6.1600
1246.7920;-48.6000;-42.4300;-6.1700
1246.9910;-48.4400;-42.2800;-6.1600
1247.1900;-48.3200;-42.1200;-6.2000
1247.3890;-48.2000;-41.9800;-6.2200
1247.5890;-48.0600;-41.8100;-6.2500
1247.7880;-47.9700;-41.6600;-6.3100
1247.9870;-47.8600;-41.4900;-6.3700
1248.1860;-47.8100;-41.3300;-6.4800
1248.3850;-47.7700;-41.1800;-6.5900
1248.5840;-47.7400;-41.0000;-6.7400
1248.7830;-47.7800;-40.8400;-6.9400
1248.9820;-47.8200;-40.6800;-7.1400
1249.1810;-47.9000;-40.5200;-7.3800
1249.3810;-48.0000;-40.3600;-7.6400
1249.5800;-48.1000;-40.1800;-7.9200
1249.7790;-48.2200;-40.0300;-8.1900
1249.9780;-48.3000;-39.8600;-8.4400
1250.1770;-48.3800;-39.7000;-8.6800
1250.3760;-48.4100;-39.5600;-8.8500
1250.5750;-48.3600;-39.3900;-8.9700
1250.7740;-48.2500;-39.2300;-9.0200
1250.9740;-48.0300;-39.0900;-8.9400
1251.1730;-47.7000;-38.9300;-8.7700
1251.3720;-47.2700;-38.7900;-8.4800
1251.5710;-46.7700;-38.6400;-8.1300
1251.7700;-46.2000;-38.4900;-7.7100
1251.9690;-45.4700;-38.3300;-7.1400
1252.1680;-44.9400;-38.1700;-6.7700
1252.3670;-44.2700;-38.0300;-6.2400
1252.5660;-43.6400;-37.8700;-5.7700
1252.7660;-42.9900;-37.7100;-5.2800
1252.9650;-42.3900;-37.5600;-4.8300
1253.1640;-41.8200;-37.3900;-4.4300
1253.3630;-41.2600;-37.2400;-4.0200
1253.5620;-40.7800;-37.0800;-3.7000
1253.7610;-40.3200;-36.9200;-3.4000
1253.9600;-39.9200;-36.7600;-3.1600
1254.1590;-39.5600;-36.5900;-2.9700
1254.3580;-39.2400;-36.4400;-2.8000
1254.5580;-38.9900;-36.2700;-2.7200
1254.7570;-38.7600;-36.1200;-2.6400
1254.9560;-38.6000;-35.9500;-2.6500
1255.1550;-38.5000;-35.7800;-2.7200
1255.3540;-38.4200;-35.6400;-2.7800
1255.5530;-38.4200;-35.4900;-2.9300
1255.7520;-38.4500;-35.3400;-3.1100
1255.9510;-38.5300;-35.1700;-3.3600
1256.1500;-38.6800;-35.0400;-3.6400
1256.3500;-38.8700;-34.8700;-4.0000
1256.5490;-39.1400;-34.7200;-4.4200
1256.7480;-39.4400;-34.5700;-4.8700
1256.9470;-39.8000;-34.4200;-5.3800
1257.1460;-40.2300;-34.2700;-5.9600
1257.3450;-40.6900;-34.1000;-6.5900
1257.5440;-41.2100;-33.9600;-7.2500
1257.7430;-41.7200;-33.8100;-7.9100
1257.9430;-42.2100;-33.6500;-8.5600
1258.1420;-42.6200;-33.5100;-9.1100
1258.3410;-42.8400;-33.3400;-9.5000
1258.5400;-42.8600;-33.1900;-9.6700
1258.7390;-42.5600;-33.0300;-9.5300
1258.9380;-42.0400;-32.8700;-9.1700
1259.1370;-41.3300;-32.7300;-8.6000
1259.3360;-40.5200;-32.5600;-7.9600
1259.5350;-39.6800;-32.4200;-7.2600
1259.7350;-38.8300;-32.2700;-6.5600
1259.9340;-38.0300;-32.1100;-5.9200
1260.1330;-37.2900;-31.9700;-5.3200
1260.3320;-36.6000;-31.8100;-4.7900
1260.5310;-35.8800;-31.6800;-4.2000
1260.7300;-35.4300;-31.5300;-3.9000
1260.9290;-34.9500;-31.3800;-3.5700
1261.1280;-34.5200;-31.2500;-3.2700
1261.3270;-34.1600;-31.0900;-3.0700
1261.5270;-33.8500;-30.9700;-2.8800
1261.7260;-33.5900;-30.8200;-2.7700
1261.9250;-33.4000;-30.6800;-2.7200
1262.1240;-33.2500;-30.5500;-2.7000
1262.3230;-33.1600;-30.4000;-2.7600
1262.5220;-33.1100;-30.2700;-2.8400
1262.7210;-33.1200;-30.1300;-2.9900
1262.9200;-33.1800;-29.9800;-3.2000
1263.1200;-33.2800;-29.8500;-3.4300
1263.3190;-33.4500;-29.6900;-3.7600
1263.5180;-33.6500;-29.5600;-4.0900
1263.7170;-33.8900;-29.4100;-4.4800
1263.9160;-34.1800;-29.2600;-4.9200
1264.1150;-34.4900;-29.1300;-5.3600
1264.3140;-34.8200;-28.9600;-5.8600
1264.5130;-35.1300;-28.8300;-6.3000
1264.7120;-35.4000;-28.6800;-6.7200
1264.9120;-35.6100;-28.5300;-7.0800
1265.1110;-35.6900;-28.3900;-7.3000
1265.3100;-35.6600;-28.2300;-7.4300
1265.5090;-35.4700;-28.1000;-7.3700
1265.7080;-35.1400;-27.9500;-7.1900
1265.9070;-34.7100;-27.8100;-6.9000
1266.1060;-34.2000;-27.6800;-6.5200
1266.3050;-33.6700;-27.5400;-6.1300
1266.5040;-33.1100;-27.4200;-5.6900
1266.7040;-32.5800;-27.2900;-5.2900
1266.9030;-32.0700;-27.1600;-4.9100
1267.1020;-31.5900;-27.0400;-4.5500
1267.3010;-31.1800;-26.9100;-4.2700
1267.5000;-30.8100;-26.8000;-4.0100
1267.6990;-30.5000;-26.6800;-3.8200
1267.8980;-30.2300;-26.5600;-3.6700
1268.0970;-30.0400;-26.4600;-3.5800
1268.2970;-29.9000;-26.3300;-3.5700
1268.4960;-29.8200;-26.2300;-3.5900
1268.6950;-29.7900;-26.0800;-3.7100
1268.8940;-29.8300;-25.9900;-3.8400
1269.0930;-29.9400;-25.8800;-4.0600
1269.2920;-30.1300;-25.7500;-4.3800
1269.4910;-30.3900;-25.6500;-4.7400
1269.6900;-30.7500;-25.5100;-5.2400
1269.8890;-31.2000;-25.3900;-5.8100
1270.0890;-31.7600;-25.2600;-6.5000
1270.2880;-32.4600;-25.1300;-7.3300
1270.4870;-33.3000;-25.0300;-8.2700
1270.6860;-34.3100;-24.8900;-9.4200
1270.8850;-35.5100;-24.7600;-10.7500
1271.0840;-36.8900;-24.6300;-12.2600
1271.2830;-38.7000;-24.5100;-14.1900
1271.4820;-39.6900;-24.3900;-15.3000
1271.6810;-40.1600;-24.2600;-15.9000
1271.8810;-39.4100;-24.1500;-15.2600
1272.0800;-37.8600;-24.0300;-13.8300
1272.2790;-35.8200;-23.9100;-11.9100
1272.4780;-34.4200;-23.8200;-10.6000
1272.6770;-32.9400;-23.7000;-9.2400
1272.8760;-31.6400;-23.6100;-8.0300
1273.0750;-30.4900;-23.5000;-6.9900
1273.2740;-29.4900;-23.4000;-6.0900
1273.4740;-28.6200;-23.3200;-5.3000
1273.6730;-27.8400;-23.2100;-4.6300
1273.8720;-27.1700;-23.1300;-4.0400
1274.0710;-26.5700;-23.0300;-3.5400
1274.2700;-25.9800;-22.9300;-3.0500
1274.4690;-25.6100;-22.8500;-2.7600
1274.6680;-25.2300;-22.7500;-2.4800
1274.8670;-24.9300;-22.6600;-2.2700
1275.0660;-24.6600;-22.5600;-2.1000
1275.2660;-24.4800;-22.4700;-2.0100
1275.4650;-24.3300;-22.3800;-1.9500
1275.6640;-24.2500;-22.2700;-1.9800
1275.8630;-24.2400;-22.1800;-2.0600
1276.0620;-24.2600;-22.0700;-2.1900
1276.2610;-24.3600;-21.9700;-2.3900
1276.4600;-24.4900;-21.8700;-2.6200
1276.6590;-24.6900;-21.7500;-2.9400
1276.8580;-24.9500;-21.6600;-3.2900
1277.0580;-25.2600;-21.5400;-3.7200
1277.2570;-25.6400;-21.4500;-4.1900
1277.4560;-26.0500;-21.3500;-4.7000
1277.6550;-26.5300;-21.2400;-5.2900
1277.8540;-27.0400;-21.1600;-5.8800
1278.0530;-27.5600;-21.0500;-6.5100
1278.2520;-28.0900;-20.9600;-7.1300
1278.4510;-28.6600;-20.8700;-7.7900
1278.6500;-28.9700;-20.7700;-8.2000
1278.8500;-29.1700;-20.7000;-8.4700
1279.0490;-29.1900;-20.6000;-8.5900
1279.2480;-28.9600;-20.5200;-8.4400
1279.4470;-28.5300;-20.4400;-8.0900
1279.6460;-27.9700;-20.3500;-7.6200
1279.8450;-27.2800;-20.2800;-7.0000
1280.0440;-26.5700;-20.1900;-6.3800
1280.2430;-25.7300;-20.1300;-5.6000
1280.4430;-25.1600;-20.0400;-5.1200
1280.6420;-24.5100;-19.9700;-4.5400
1280.8410;-23.9000;-19.9000;-4.0000
1281.0400;-23.3600;-19.8200;-3.5400
1281.2390;-22.8500;-19.7500;-3.1000
1281.4380;-22.4200;-19.6700;-2.7500
1281.6370;-22.0100;-19.6000;-2.4100
1281.8360;-21.6700;-19.5300;-2.1400
1282.0350;-21.3900;-19.4500;-1.9400
1282.2350;-21.1400;-19.3900;-1.7500
1282.4340;-20.9500;-19.3000;-1.6500
1282.6330;-20.8000;-19.2400;-1.5600
1282.8320;-20.6900;-19.1700;-1.5200
1283.0310;-20.6200;-19.0900;-1.5300
1283.2300;-20.5900;-19.0200;-1.5700
1283.4290;-20.6000;-18.9400;-1.6600
1283.6280;-20.6200;-18.8700;-1.7500
1283.8270;-20.6900;-18.8000;-1.8900
1284.0270;-20.7900;-18.7200;-2.0700
1284.2260;-20.9100;-18.6600;-2.2500
1284.4250;-21.0500;-18.5800;-2.4700
1284.6240;-21.1900;-18.5100;-2.6800
1284.8230;-21.3500;-18.4300;-2.9200
1285.0220;-21.5000;-18.3600;-3.1400
1285.2210;-21.6300;-18.3000;-3.3300
1285.4200;-21.7600;-18.2200;-3.5400
1285.6200;-21.8300;-18.1600;-3.6700
1285.8190;-21.8800;-18.1000;-3.7800
1286.0180;-21.8800;-18.0300;-3.8500
1286.2170;-21.8300;-17.9800;-3.8500
1286.4160;-21.7400;-17.9100;-3.8300
1286.6150;-21.6000;-17.8800;-3.7200
1286.8140;-21.4300;-17.8200;-3.6100
1287.0130;-21.2100;-17.7600;-3.4500
1287.2120;-20.9800;-17.7200;-3.2600
1287.4120;-20.7500;-17.6600;-3.0900
1287.6110;-20.5000;-17.6300;-2.8700
1287.8100;-20.2700;-17.5700;-2.7000
1288.0090;-20.0400;-17.5200;-2.5200
1288.2080;-19.8200;-17.4800;-2.3400
1288.4070;-19.6400;-17.4300;-2.2100
1288.6060;-19.4600;-17.4000;-2.0600
1288.8050;-19.3200;-17.3400;-1.9800
1289.0040;-19.1900;-17.3000;-1.8900
1289.2040;-19.0800;-17.2500;-1.8300
1289.4030;-19.0100;-17.1900;-1.8200
1289.6020;-18.9500;-17.1600;-1.7900
1289.8010;-18.9200;-17.0900;-1.8300
1290.0000;-18.8900;-17.0400;-1.8500
1290.1990;-18.8800;-16.9900;-1.8900
1290.3980;-18.9100;-16.9300;-1.9800
1290.5970;-18.9300;-16.8900;-2.0400
1290.7970;-18.9700;-16.8200;-2.1500
1290.9960;-18.9800;-16.7600;-2.2200
1291.1950;-19.0000;-16.7000;-2.3000
1291.3940;-19.0300;-16.6400;-2.3900
1291.5930;-19.0300;-16.5800;-2.4500
1291.7920;-19.0400;-16.5200;-2.5200
1291.9910;-19.0200;-16.4800;-2.5400
1292.1900;-19.0000;-16.4200;-2.5800
1292.3890;-18.9600;-16.3800;-2.5800
1292.5890;-18.9000;-16.3300;-2.5700
1292.7880;-18.8500;-16.2800;-2.5700
1292.9870;-18.7800;-16.2500;-2.5300
1293.1860;-18.7200;-16.2100;-2.5100
1293.3850;-18.6500;-16.1800;-2.4700
1293.5840;-18.5800;-16.1400;-2.4400
1293.7830;-18.5400;-16.1200;-2.4200
1293.9820;-18.4900;-16.0900;-2.4000
1294.1810;-18.4800;-16.0700;-2.4100
1294.3810;-18.4700;-16.0600;-2.4100
1294.5800;-18.4700;-16.0200;-2.4500
1294.7790;-18.5200;-16.0100;-2.5100
1294.9780;-18.5900;-15.9800;-2.6100
1295.1770;-18.7000;-15.9600;-2.7400
1295.3760;-18.8200;-15.9400;-2.8800
1295.5750;-18.9700;-15.9000;-3.0700
1295.7740;-19.1600;-15.8900;-3.2700
1295.9740;-19.3600;-15.8400;-3.5200
1296.1730;-19.6100;-15.8200;-3.7900
1296.3720;-19.8600;-15.7900;-4.0700
1296.5710;-20.1400;-15.7400;-4.4000
1296.7700;-20.4200;-15.7200;-4.7000
1296.9690;-20.7000;-15.6800;-5.0200
1297.1680;-20.9800;-15.6500;-5.3300
1297.3670;-21.2000;-15.6100;-5.5900
1297.5660;-21.3800;-15.5600;-5.8200
1297.7660;-21.4900;-15.5400;-5.9500
1297.9650;-21.5300;-15.4900;-6.0400
1298.1640;-21.4800;-15.4600;-6.0200
1298.3630;-21.3200;-15.4300;-5.8900
1298.5620;-21.1000;-15.3800;-5.7200
1298.7610;-20.7900;-15.3600;-5.4300
1298.9600;-20.4400;-15.3300;-5.1100
1299.1590;-20.0600;-15.3200;-4.7400
1299.3580;-19.6600;-15.2900;-4.3700
1299.5580;-19.2700;-15.2600;-4.0100
1299.7570;-18.8700;-15.2500;-3.6200
1299.9560;-18.5100;-15.2400;-3.2700
1300.1550;-18.1600;-15.2400;-2.9200
1300.3540;-17.8500;-15.2200;-2.6300
1300.5530;-17.5700;-15.2100;-2.3600
1300.7520;-17.3200;-15.2100;-2.1100
1300.9510;-17.1200;-15.2000;-1.9200
1301.1500;-16.9500;-15.2200;-1.7300
1301.3500;-16.8200;-15.2100;-1.6100
1301.5490;-16.7500;-15.2200;-1.5300
1301.7480;-16.6900;-15.2200;-1.4700
1301.9470;-16.7000;-15.2200;-1.4800
1302.1460;-16.7400;-15.2400;-1.5000
1302.3450;-16.8200;-15.2300;-1.5900
1302.5440;-16.9600;-15.2500;-1.7100
1302.7430;-17.1400;-15.2400;-1.9000
1302.9430;-17.3800;-15.2400;-2.1400
1303.1420;-17.6600;-15.2600;-2.4000
1303.3410;-18.0100;-15.2500;-2.7600
1303.5400;-18.4200;-15.2700;-3.1500
1303.7390;-18.8900;-15.2500;-3.6400
1303.9380;-19.4400;-15.2600;-4.1800
1304.1370;-20.0700;-15.2700;-4.8000
1304.3360;-20.8000;-15.2700;-5.5300
1304.5350;-21.6200;-15.2800;-6.3400
1304.7350;-22.5700;-15.2700;-7.3000
1304.9340;-23.6600;-15.2800;-8.3800
1305.1330;-24.9200;-15.2800;-9.6400
1305.3320;-26.3700;-15.2800;-11.0900
1305.5310;-28.0000;-15.3100;-12.6900
1305.7300;-30.1200;-15.3000;-14.8200
1305.9290;-31.2800;-15.3100;-15.9700
1306.1280;-31.9000;-15.3200;-16.5800
1306.3270;-31.1900;-15.3300;-15.8600
1306.5270;-29.6800;-15.3600;-14.3200
1306.7260;-27.9900;-15.3700;-12.6200
1306.9250;-26.4100;-15.3900;-11.0200
1307.1240;-24.8300;-15.4000;-9.4300
1307.3230;-23.8300;-15.4200;-8.4100
1307.5220;-22.8200;-15.4600;-7.3600
1307.7210;-21.9400;-15.4700;-6.4700
1307.9200;-21.1600;-15.4900;-5.6700
1308.1200;-20.5100;-15.5200;-4.9900
1308.3190;-19.9200;-15.5400;-4.3800
1308.5180;-19.4400;-15.5700;-3.8700
1308.7170;-19.0000;-15.5900;-3.4100
1308.9160;-18.6200;-15.6200;-3.0000
1309.1150;-18.3400;-15.6400;-2.7000
1309.3140;-18.0600;-15.6700;-2.3900
1309.5130;-17.8700;-15.7000;-2.1700
1309.7120;-17.7000;-15.7100;-1.9900
1309.9120;-17.5800;-15.7500;-1.8300
