Wavelength (nm);Intensity (dBm)
1131.0;1131.0
1200.0;-61.44
1200.199;-61.35
1200.398;-61.31
1200.597;-61.26
1200.797;-61.23
1200.996;-61.16
1201.195;-61.1
1201.394;-61.03
1201.593;-60.99
1201.792;-60.95
1201.991;-60.89
1202.19;-60.85
1202.389;-60.78
1202.589;-60.76
1202.788;-60.69
1202.987;-60.67
1203.186;-60.65
1203.385;-60.62
1203.584;-60.58
1203.783;-60.57
1203.982;-60.57
1204.181;-60.57
1204.381;-60.54
1204.58;-60.52
1204.779;-60.58
1204.978;-60.59
1205.177;-60.6
1205.376;-60.62
1205.575;-60.66
1205.774;-60.7
1205.974;-60.7
1206.173;-60.67
1206.372;-60.68
1206.571;-60.71
1206.77;-60.68
1206.969;-60.63
1207.168;-60.58
1207.367;-60.57
1207.566;-60.52
1207.766;-60.45
1207.965;-60.35
1208.164;-60.27
1208.363;-60.24
1208.562;-60.16
1208.761;-60.06
1208.96;-60.0
1209.159;-59.93
1209.358;-59.87
1209.558;-59.76
1209.757;-59.69
1209.956;-59.65
1210.155;-59.58
1210.354;-59.5
1210.553;-59.45
1210.752;-59.41
1210.951;-59.37
1211.15;-59.27
1211.35;-59.22
1211.549;-59.2
1211.748;-59.17
1211.947;-59.12
1212.146;-59.06
1212.345;-59.06
1212.544;-59.07
1212.743;-59.04
1212.943;-58.99
1213.142;-58.97
1213.341;-59.02
1213.54;-59.0
1213.739;-58.97
1213.938;-58.95
1214.137;-58.98
1214.336;-58.99
1214.535;-58.96
1214.735;-58.94
1214.934;-58.96
1215.133;-58.95
1215.332;-58.9
1215.531;-58.86
1215.73;-58.88
1215.929;-58.86
1216.128;-58.8
1216.327;-58.76
1216.527;-58.76
1216.726;-58.75
1216.925;-58.71
1217.124;-58.64
1217.323;-58.62
1217.522;-58.62
1217.721;-58.6
1217.92;-58.53
1218.12;-58.52
1218.319;-58.54
1218.518;-58.5
1218.717;-58.45
1218.916;-58.44
1219.115;-58.44
1219.314;-58.43
1219.513;-58.38
1219.712;-58.37
1219.912;-58.36
1220.111;-58.34
1220.31;-58.3
1220.509;-58.25
1220.708;-58.25
1220.907;-58.22
1221.106;-58.12
1221.305;-58.08
1221.504;-58.05
1221.704;-58.01
1221.903;-57.93
1222.102;-57.84
1222.301;-57.8
1222.5;-57.74
1222.699;-57.66
1222.898;-57.57
1223.097;-57.51
1223.297;-57.48
1223.496;-57.37
1223.695;-57.29
1223.894;-57.24
1224.093;-57.17
1224.292;-57.08
1224.491;-56.96
1224.69;-56.91
1224.889;-56.79
1225.089;-56.67
1225.288;-56.54
1225.487;-56.4
1225.686;-56.29
1225.885;-56.12
1226.084;-55.94
1226.283;-55.77
1226.482;-55.63
1226.681;-55.48
1226.881;-55.31
1227.08;-55.18
1227.279;-55.07
5.0;-54.91
1232.854;-54.81
1233.053;-54.73
1233.252;-54.65
1233.451;-54.58
1233.65;-54.51
1233.85;-54.5
1234.049;-54.48
1234.248;-54.44
1234.447;-54.45
1234.646;-54.46
1234.845;-54.49
1235.044;-54.49
1235.243;-54.53
1235.443;-54.59
1235.642;-54.63
1235.841;-54.67
1236.04;-54.73
1236.239;-54.79
1236.438;-54.86
1236.637;-54.87
1236.836;-54.89
1237.035;-54.88
1237.235;-54.84
1237.434;-54.76
1237.633;-54.65
1237.832;-54.53
1238.031;-54.35
1238.23;-54.15
1238.429;-53.95
1238.628;-53.73
1238.827;-53.53
1239.027;-53.3
1239.226;-53.11
1239.425;-52.94
1239.624;-52.77
1239.823;-52.62
1240.022;-52.49
1240.221;-52.39
1240.42;-52.31
1240.62;-52.22
1240.819;-52.2
1241.018;-52.15
1241.217;-52.13
1241.416;-52.11
1241.615;-52.11
1241.814;-52.13
1242.013;-52.11
1242.212;-52.12
1242.412;-52.14
1242.611;-52.14
1242.81;-52.15
1243.009;-52.14
1243.208;-52.13
1243.407;-52.11
1243.606;-52.04
1243.805;-52.01
1244.004;-51.93
1244.204;-51.84
1244.403;-51.73
1244.602;-51.62
1244.801;-51.53
1245.0;-51.38
1245.199;-51.25
1245.398;-51.13
1245.597;-51.0
1245.797;-50.88
1245.996;-50.76
1246.195;-50.65
1246.394;-50.56
1246.593;-50.45
1246.792;-50.37
1246.991;-50.3
1247.19;-50.24
1247.389;-50.18
1247.589;-50.13
1247.788;-50.1
1247.987;-50.04
1248.186;-49.99
1248.385;-49.95
1248.584;-49.91
1248.783;-49.86
1248.982;-49.81
1249.181;-49.77
1249.381;-49.72
1249.58;-49.67
1249.779;-49.64
1249.978;-49.6
1250.177;-49.56
1250.376;-49.52
1250.575;-49.49
1250.774;-49.46
1250.974;-49.4
1251.173;-49.35
1251.372;-49.28
1251.571;-49.18
1251.77;-49.04
1251.969;-48.87
1252.168;-48.67
1252.367;-48.42
1252.566;-48.13
1252.766;-47.81
1252.965;-47.45
1253.164;-47.06
1253.363;-46.65
1253.562;-46.24
1253.761;-45.75
1253.96;-45.4
1254.159;-45.02
1254.358;-44.63
1254.558;-44.26
1254.757;-43.89
1254.956;-43.56
1255.155;-43.25
1255.354;-42.95
1255.553;-42.7
1255.752;-42.44
1255.951;-42.21
1256.15;-42.01
1256.35;-41.82
1256.549;-41.65
1256.748;-41.48
1256.947;-41.33
1257.146;-41.2
1257.345;-41.05
1257.544;-40.92
1257.743;-40.79
1257.943;-40.65
1258.142;-40.53
1258.341;-40.39
1258.54;-40.26
1258.739;-40.1
1258.938;-39.95
1259.137;-39.8
1259.336;-39.63
1259.535;-39.46
1259.735;-39.28
1259.934;-39.1
1260.133;-38.91
1260.332;-38.73
1260.531;-38.55
1260.73;-38.35
1260.929;-38.16
1261.128;-37.97
1261.327;-37.78
1261.527;-37.59
1261.726;-37.39
1261.925;-37.21
1262.124;-37.01
1262.323;-36.81
1262.522;-36.63
1262.721;-36.43
1262.92;-36.24
1263.12;-36.04
1263.319;-35.83
1263.518;-35.66
1263.717;-35.47
1263.916;-35.28
1264.115;-35.08
1264.314;-34.9
1264.513;-34.7
1264.712;-34.52
1264.912;-34.34
1265.111;-34.14
1265.31;-33.98
1265.509;-33.79
1265.708;-33.63
1265.907;-33.47
1266.106;-33.3
1266.305;-33.14
1266.504;-32.98
1266.704;-32.84
1266.903;-32.69
1267.102;-32.54
1267.301;-32.4
1267.5;-32.25
1267.699;-32.11
1267.898;-31.98
1268.097;-31.83
1268.297;-31.7
1268.496;-31.55
1268.695;-31.41
1268.894;-31.27
1269.093;-31.12
1269.292;-30.98
1269.491;-30.83
1269.69;-30.69
1269.889;-30.54
1270.089;-30.4
1270.288;-30.26
1270.487;-30.1
1270.686;-29.97
1270.885;-29.84
1271.084;-29.7
1271.283;-29.58
1271.482;-29.44
1271.681;-29.33
1271.881;-29.22
1272.08;-29.1
1272.279;-29.0
1272.478;-28.89
1272.677;-28.81
1272.876;-28.72
1273.075;-28.64
1273.274;-28.59
1273.474;-28.51
1273.673;-28.47
1273.872;-28.43
1274.071;-28.39
1274.27;-28.38
1274.469;-28.37
1274.668;-28.39
1274.867;-28.42
1275.066;-28.47
1275.266;-28.55
1275.465;-28.64
1275.664;-28.78
1275.863;-28.94
1276.062;-29.13
1276.261;-29.38
1276.46;-29.65
1276.659;-29.98
1276.858;-30.36
1277.058;-30.79
1277.257;-31.3
1277.456;-31.85
1277.655;-32.49
1277.854;-33.18
1278.053;-33.94
1278.252;-34.77
1278.451;-35.6
1278.65;-36.41
1278.85;-37.05
1279.049;-37.44
1279.248;-37.46
1279.447;-37.08
1279.646;-36.42
1279.845;-35.55
1280.044;-34.61
1280.243;-33.69
1280.443;-32.8
1280.642;-32.0
1280.841;-31.24
1281.04;-30.57
1281.239;-29.97
1281.438;-29.43
1281.637;-28.96
1281.836;-28.53
1282.035;-28.18
1282.235;-27.86
1282.434;-27.61
1282.633;-27.41
1282.832;-27.24
1283.031;-27.13
1283.23;-27.03
1283.429;-26.98
1283.628;-26.97
1283.827;-26.98
1284.027;-27.04
1284.226;-27.1
1284.425;-27.19
1284.624;-27.3
1284.823;-27.42
1285.022;-27.56
1285.221;-27.68
1285.42;-27.82
1285.62;-27.94
1285.819;-28.05
1286.018;-28.16
1286.217;-28.24
1286.416;-28.31
1286.615;-28.35
1286.814;-28.37
1287.013;-28.39
1287.212;-28.37
1287.412;-28.37
1287.611;-28.34
1287.81;-28.33
1288.009;-28.32
1288.208;-28.31
1288.407;-28.32
1288.606;-28.31
1288.805;-28.34
1289.004;-28.37
1289.204;-28.4
1289.403;-28.47
1289.602;-28.51
1289.801;-28.57
1290.0;-28.63
1290.199;-28.66
1290.398;-28.69
1290.597;-28.67
1290.797;-28.63
1290.996;-28.54
1291.195;-28.4
1291.394;-28.22
1291.593;-27.98
1291.792;-27.71
1291.991;-27.37
1292.19;-27.01
1292.389;-26.63
1292.589;-26.2
1292.788;-25.72
1292.987;-25.36
1293.186;-24.95
1293.385;-24.52
1293.584;-24.12
1293.783;-23.72
1293.982;-23.33
1294.181;-22.98
1294.381;-22.62
1294.58;-22.29
1294.779;-21.97
1294.978;-21.66
1295.177;-21.4
1295.376;-21.13
1295.575;-20.89
1295.774;-20.67
1295.974;-20.45
1296.173;-20.27
1296.372;-20.08
1296.571;-19.94
1296.77;-19.79
1296.969;-19.67
1297.168;-19.58
1297.367;-19.5
1297.566;-19.45
1297.766;-19.39
1297.965;-19.36
1298.164;-19.37
1298.363;-19.38
1298.562;-19.43
1298.761;-19.47
1298.96;-19.55
1299.159;-19.65
1299.358;-19.77
1299.558;-19.93
1299.757;-20.08
1299.956;-20.28
1300.155;-20.49
1300.354;-20.74
1300.553;-21.03
1300.752;-21.31
1300.951;-21.66
1301.15;-22.02
1301.35;-22.43
1301.549;-22.89
1301.748;-23.36
1301.947;-23.91
1302.146;-24.5
1302.345;-25.15
1302.544;-25.87
1302.743;-26.64
1302.943;-27.52
1303.142;-28.67
1303.341;-29.56
1303.54;-30.69
1303.739;-31.9
1303.938;-33.09
1304.137;-34.08
1304.336;-34.65
1304.535;-34.51
1304.735;-33.78
1304.934;-32.7
1305.133;-31.5
1305.332;-30.34
1305.531;-29.24
1305.73;-28.24
1305.929;-27.32
1306.128;-26.5
1306.327;-25.67
1306.527;-25.12
1306.726;-24.54
1306.925;-23.99
1307.124;-23.51
1307.323;-23.07
1307.522;-22.66
1307.721;-22.32
1307.92;-21.99
1308.12;-21.71
1308.319;-21.45
1308.518;-21.23
1308.717;-21.04
1308.916;-20.87
1309.115;-20.74
1309.314;-20.63
1309.513;-20.54
1309.712;-20.49
1309.912;-20.44
1310.111;-20.44
1310.31;-20.45
1310.509;-20.5
1310.708;-20.56
1310.907;-20.65
1311.106;-20.77
1311.305;-20.91
1311.504;-21.08
1311.704;-21.27
1311.903;-21.48
1312.102;-21.74
1312.301;-22.01
1312.5;-22.33
1312.699;-22.67
1312.898;-23.05
1313.097;-23.47
1313.297;-23.93
1313.496;-24.45
1313.695;-24.99
1313.894;-25.6
1314.093;-26.26
1314.292;-26.99
1314.491;-27.79
1314.69;-28.84
1314.889;-29.6
1315.089;-30.57
1315.288;-31.62
1315.487;-32.66
1315.686;-33.62
1315.885;-34.4
1316.084;-34.77
1316.283;-34.7
1316.482;-34.18
1316.681;-33.4
1316.881;-32.5
1317.08;-31.58
1317.279;-30.7
1317.478;-29.87
1317.677;-29.13
1317.876;-28.45
1318.075;-27.83
1318.274;-27.29
1318.474;-26.79
1318.673;-26.37
1318.872;-25.91
1319.071;-25.64
1319.27;-25.34
1319.469;-25.07
1319.668;-24.86
1319.867;-24.65
1320.066;-24.5
1320.266;-24.36
1320.465;-24.25
1320.664;-24.18
1320.863;-24.11
1321.062;-24.09
1321.261;-24.07
1321.46;-24.09
1321.659;-24.13
1321.858;-24.17
1322.058;-24.26
1322.257;-24.35
1322.456;-24.47
1322.655;-24.59
1322.854;-24.73
1323.053;-24.89
1323.252;-25.05
1323.451;-25.25
1323.65;-25.43
1323.85;-25.64
1324.049;-25.85
1324.248;-26.06
1324.447;-26.29
1324.646;-26.5
1324.845;-26.73
1325.044;-26.93
1325.243;-27.13
1325.443;-27.33
1325.642;-27.49
1325.841;-27.66
1326.04;-27.78
1326.239;-27.89
1326.438;-27.98
1326.637;-28.04
1326.836;-28.09
1327.035;-28.09
1327.235;-28.08
1327.434;-28.05
1327.633;-28.0
1327.832;-27.95
1328.031;-27.88
1328.23;-27.81
1328.429;-27.73
1328.628;-27.66
1328.827;-27.59
1329.027;-27.51
1329.226;-27.46
1329.425;-27.38
1329.624;-27.33
1329.823;-27.29
1330.022;-27.26
1330.221;-27.25
1330.42;-27.23
1330.62;-27.23
1330.819;-27.25
1331.018;-27.26
1331.217;-27.31
1331.416;-27.34
1331.615;-27.4
1331.814;-27.46
1332.013;-27.54
1332.212;-27.63
1332.412;-27.72
1332.611;-27.84
1332.81;-27.95
1333.009;-28.08
1333.208;-28.22
1333.407;-28.37
1333.606;-28.58
1333.805;-28.73
1334.004;-28.92
1334.204;-29.13
1334.403;-29.35
1334.602;-29.58
1334.801;-29.82
1335.0;-30.09
1335.199;-30.37
1335.398;-30.69
1335.597;-31.01
1335.797;-31.37
1335.996;-31.75
1336.195;-32.17
1336.394;-32.63
1336.593;-33.1
1336.792;-33.63
1336.991;-34.18
1337.19;-34.8
1337.389;-35.47
1337.589;-36.19
1337.788;-37.01
1337.987;-37.86
1338.186;-39.03
1338.385;-39.89
1338.584;-41.04
1338.783;-42.33
1338.982;-43.73
1339.181;-45.23
1339.381;-46.68
1339.58;-47.87
1339.779;-48.52
1339.978;-48.2
1340.177;-47.32
1340.376;-46.03
1340.575;-45.08
1340.774;-44.06
1340.974;-43.16
1341.173;-42.37
1341.372;-41.7
1341.571;-41.1
1341.77;-40.62
1341.969;-40.21
1342.168;-39.88
1342.367;-39.63
1342.566;-39.43
1342.766;-39.3
1342.965;-39.2
1343.164;-39.17
1343.363;-39.19
1343.562;-39.24
1343.761;-39.36
1343.96;-39.5
1344.159;-39.69
1344.358;-39.92
1344.558;-40.18
1344.757;-40.49
1344.956;-40.82
1345.155;-41.2
1345.354;-41.59
1345.553;-42.02
1345.752;-42.47
1345.951;-42.93
1346.15;-43.41
1346.35;-43.88
1346.549;-44.35
1346.748;-44.81
1346.947;-45.25
1347.146;-45.66
1347.345;-46.01
1347.544;-46.31
1347.743;-46.54
1347.943;-46.72
1348.142;-46.84
1348.341;-46.9
1348.54;-46.93
1348.739;-46.9
1348.938;-46.85
1349.137;-46.79
1349.336;-46.7
1349.535;-46.63
1349.735;-46.55
1349.934;-46.48
1350.133;-46.38
1350.332;-46.31
1350.531;-46.25
1350.73;-46.2
1350.929;-46.17
1351.128;-46.13
1351.327;-46.13
1351.527;-46.12
1351.726;-46.14
1351.925;-46.16
1352.124;-46.16
1352.323;-46.19
1352.522;-46.21
1352.721;-46.29
1352.92;-46.4
1353.12;-46.47
1353.319;-46.55
1353.518;-46.62
1353.717;-46.66
1353.916;-46.74
1354.115;-46.81
1354.314;-46.9
1354.513;-46.96
1354.712;-47.06
1354.912;-47.16
1355.111;-47.27
1355.31;-47.43
1355.509;-47.63
1355.708;-47.8
1355.907;-47.92
1356.106;-48.04
1356.305;-48.14
1356.504;-48.28
1356.704;-48.49
1356.903;-48.68
1357.102;-48.88
1357.301;-49.05
1357.5;-49.26
1357.699;-49.48
1357.898;-49.66
1358.097;-49.86
1358.297;-50.16
1358.496;-50.33
1358.695;-50.54
1358.894;-50.81
1359.093;-50.98
1359.292;-51.21
1359.491;-51.53
1359.69;-51.81
1359.889;-52.24
1360.089;-52.62
1360.288;-52.92
1360.487;-53.18
1360.686;-53.3
1360.885;-53.69
1361.084;-54.08
1361.283;-54.38
1361.482;-54.61
1361.681;-54.86
1361.881;-54.9
1362.08;-55.16
1362.279;-55.65
1362.478;-55.98
1362.677;-56.27
1362.876;-56.54
1363.075;-56.68
1363.274;-56.81
1363.474;-57.03
1363.673;-57.31
1363.872;-57.46
1364.071;-57.63
1364.27;-57.78
1364.469;-57.81
1364.668;-58.16
1364.867;-58.47
1365.066;-58.58
1365.266;-58.58
1365.465;-58.54
1365.664;-58.46
1365.863;-58.54
1366.062;-58.81
1366.261;-59.01
1366.46;-59.09
1366.659;-59.15
1366.858;-59.28
1367.058;-59.33
1367.257;-59.45
1367.456;-59.81
1367.655;-59.94
1367.854;-60.0
1368.053;-59.78
1368.252;-59.64
1368.451;-59.34
1368.65;-59.35
1368.85;-59.37
1369.049;-59.45
1369.248;-59.61
1369.447;-59.77
1369.646;-60.01
1369.845;-60.5
1370.044;-60.67
1370.243;-60.6
1370.443;-60.75
1370.642;-60.67
1370.841;-60.73
1371.04;-60.77
1371.239;-60.77
1371.438;-60.77
1371.637;-60.83
1371.836;-61.0
1372.035;-61.26
1372.235;-61.45
1372.434;-61.56
1372.633;-61.86
1372.832;-62.08
1373.031;-62.4
1373.23;-62.57
1373.429;-62.61
1373.628;-63.02
1373.827;-63.17
1374.027;-63.35
1374.226;-63.43
1374.425;-63.45
1374.624;-63.47
1374.823;-63.69
1375.022;-64.1
1375.221;-64.43
1375.42;-64.7
1375.62;-64.88
1375.819;-65.02
1376.018;-65.51
1376.217;-65.92
1376.416;-66.35
1376.615;-66.51
1376.814;-66.76
1377.013;-66.89
1377.212;-67.32
1377.412;-67.75
1377.611;-68.16
1377.81;-68.64
1378.009;-68.94
1378.208;-69.33
1378.407;-69.73
1378.606;-70.31
1378.805;-70.86
1379.004;-71.66
1379.204;-71.96
1379.403;-72.73
1379.602;-73.07
1379.801;-73.58
1380.0;-74.75
1380.199;-75.05
1380.398;-76.13
1380.597;-76.36
1380.797;-77.04
1380.996;-76.83
1381.195;-77.59
1381.394;-77.4
1381.593;-77.42
1381.792;-77.45
1381.991;-77.03
1382.19;-77.25
1382.389;-77.14
1382.589;-76.75
1382.788;-76.42
1382.987;-75.96
1383.186;-75.82
1383.385;-75.29
1383.584;-75.26
1383.783;-74.91
1383.982;-74.62
1384.181;-74.36
1384.381;-74.09
1384.58;-73.72
1384.779;-73.81
1384.978;-73.44
1385.177;-73.68
1385.376;-73.9
1385.575;-73.77
1385.774;-74.27
1385.974;-74.66
1386.173;-75.16
1386.372;-74.88
1386.571;-74.88
1386.77;-74.69
1386.969;-75.12
1387.168;-75.16
1387.367;-75.71
1387.566;-76.06
1387.766;-76.93
1387.965;-77.29
1388.164;-78.05
1388.363;-78.91
1388.562;-78.07
1388.761;-78.0
1388.96;-78.24
1389.159;-79.69
1389.358;-80.18
1389.558;-80.3
1389.757;-82.85
1389.956;-81.47
1390.155;-81.87
1390.354;-82.23
1390.553;-81.42
1390.752;-83.32
1390.951;-83.08
1391.15;-89.1
1391.35;-81.87
1391.549;-82.5
1391.748;-83.08
1391.947;-83.57
1392.146;-81.64
1392.345;-82.17
1392.544;-82.23
1392.743;-83.24
1392.943;-82.36
1393.142;-81.99
1393.341;-81.64
1393.54;-82.71
1393.739;-80.92
1393.938;-82.43
1394.137;-80.69
1394.336;-82.11
1394.535;-81.02
1394.735;-80.92
1394.934;-80.83
1395.133;-81.75
1395.332;-81.69
1395.531;-81.32
1395.73;-80.56
1395.929;-79.95
1396.128;-81.64
1396.327;-83.75
1396.527;-82.5
1396.726;-84.34
1396.925;-80.88
1397.124;-85.52
1397.323;-83.33
1397.522;-83.25
1397.721;-89.78
1397.92;-84.77
1398.12;-85.01
1398.319;-85.01
1398.518;-84.23
1398.717;-83.33
1398.916;-83.33
1399.115;-84.13
1399.314;-83.58
1399.513;-84.34
1399.712;-84.34
1399.912;-83.76
1400.111;-81.28
1400.31;-82.94
1400.509;-84.44
1400.708;-81.88
1400.907;-84.23
1401.106;-80.4
1401.305;-82.44
1401.504;-82.94
1401.704;-82.12
1401.903;-84.55
1402.102;-82.51
1402.301;-85.8
1402.5;-82.51
1402.699;-85.52
1402.898;-82.79
1403.097;-81.88
1403.297;-81.28
1403.496;-81.88
1403.695;-82.8
1403.894;-82.25
1404.093;-84.14
1404.292;-81.89
1404.491;-81.83
1404.69;-83.95
1404.889;-82.38
1405.089;-81.44
1405.288;-83.59
1405.487;-83.34
1405.686;-83.26
1405.885;-85.02
1406.084;-83.1
1406.283;-81.34
1406.482;-80.37
1406.681;-83.1
1406.881;-80.25
1407.08;-82.52
1407.279;-82.52
1407.478;-87.16
1407.677;-82.73
1407.876;-82.52
1408.075;-82.38
1408.274;-81.44
1408.474;-82.52
1408.673;-86.78
1408.872;-81.77
1409.071;-83.26
1409.27;-83.18
1409.469;-91.04
1409.668;-84.14
1409.867;-81.66
1410.066;-81.29
1410.266;-85.02
1410.465;-85.96
1410.664;-84.56
1410.863;-88.54
1411.062;-83.59
1411.261;-82.07
1411.46;-83.5
1411.659;-81.83
1411.858;-81.45
1412.058;-83.35
1412.257;-83.03
1412.456;-83.11
1412.655;-82.96
1412.854;-83.35
1413.053;-85.4
1413.252;-83.78
1413.451;-83.35
1413.65;-79.91
1413.85;-82.53
1414.049;-82.74
1414.248;-81.84
1414.447;-81.84
1414.646;-83.27
1414.845;-82.53
1415.044;-89.13
1415.243;-89.8
1415.443;-85.54
1415.642;-83.78
1415.841;-83.87
1416.04;-84.06
1416.239;-85.68
1416.438;-81.56
1416.637;-81.14
1416.836;-82.39
1417.035;-85.03
1417.235;-82.46
1417.434;-85.97
1417.633;-82.53
1417.832;-85.27
1418.031;-82.46
1418.23;-81.35
1418.429;-82.96
1418.628;-81.0
1418.827;-83.61
1419.027;-83.12
1419.226;-82.75
1419.425;-82.47
1419.624;-82.21
1419.823;-83.44
1420.022;-82.54
1420.221;-80.6
1420.42;-81.36
1420.62;-85.55
1420.819;-82.27
1421.018;-81.73
1421.217;-83.79
1421.416;-83.79
1421.615;-86.29
1421.814;-82.89
1422.013;-81.79
1422.212;-84.92
1422.412;-80.87
1422.611;-82.15
1422.81;-81.2
1423.009;-80.91
1423.208;-82.47
1423.407;-82.03
1423.606;-82.03
1423.805;-82.03
1424.004;-82.54
1424.204;-80.78
1424.403;-81.85
1424.602;-81.68
1424.801;-82.89
1425.0;-83.2
