Wavelength (nm);Intensity (dBm)
1131.0;1131.0
1200.0;-61.35
1200.199;-61.33
1200.398;-61.27
1200.597;-61.23
1200.797;-61.18
1200.996;-61.13
1201.195;-61.11
1201.394;-61.06
1201.593;-61.06
1201.792;-61.01
1201.991;-60.98
1202.19;-60.97
1202.389;-60.95
1202.589;-60.96
1202.788;-60.91
1202.987;-60.92
1203.186;-60.9
1203.385;-60.89
1203.584;-60.9
1203.783;-60.86
1203.982;-60.88
1204.181;-60.87
1204.381;-60.86
1204.58;-60.87
1204.779;-60.85
1204.978;-60.84
1205.177;-60.84
1205.376;-60.82
1205.575;-60.82
1205.774;-60.81
1205.974;-60.81
1206.173;-60.74
1206.372;-60.68
1206.571;-60.7
1206.77;-60.64
1206.969;-60.55
1207.168;-60.5
1207.367;-60.43
1207.566;-60.38
1207.766;-60.29
1207.965;-60.19
1208.164;-60.11
1208.363;-60.05
1208.562;-59.99
1208.761;-59.88
1208.96;-59.81
1209.159;-59.78
1209.358;-59.72
1209.558;-59.64
1209.757;-59.56
1209.956;-59.53
1210.155;-59.49
1210.354;-59.4
1210.553;-59.36
1210.752;-59.32
1210.951;-59.29
1211.15;-59.23
1211.35;-59.16
1211.549;-59.18
1211.748;-59.17
1211.947;-59.11
1212.146;-59.06
1212.345;-59.04
1212.544;-59.06
1212.743;-59.03
1212.943;-58.97
1213.142;-58.97
1213.341;-59.0
1213.54;-59.0
1213.739;-58.95
1213.938;-58.95
1214.137;-58.96
1214.336;-58.96
1214.535;-58.92
1214.735;-58.9
1214.934;-58.92
1215.133;-58.91
1215.332;-58.85
1215.531;-58.82
1215.73;-58.83
1215.929;-58.82
1216.128;-58.76
1216.327;-58.71
1216.527;-58.73
1216.726;-58.7
1216.925;-58.66
1217.124;-58.6
1217.323;-58.59
1217.522;-58.61
1217.721;-58.54
1217.92;-58.5
1218.12;-58.47
1218.319;-58.49
1218.518;-58.48
1218.717;-58.42
1218.916;-58.42
1219.115;-58.42
1219.314;-58.39
1219.513;-58.37
1219.712;-58.33
1219.912;-58.33
1220.111;-58.3
1220.31;-58.23
1220.509;-58.18
1220.708;-58.17
1220.907;-58.12
1221.106;-58.03
1221.305;-57.95
1221.504;-57.92
1221.704;-57.85
1221.903;-57.74
1222.102;-57.63
1222.301;-57.57
1222.5;-57.49
1222.699;-57.38
1222.898;-57.26
1223.097;-57.18
1223.297;-57.11
1223.496;-57.0
1223.695;-56.88
1223.894;-56.82
1224.093;-56.74
1224.292;-56.62
1224.491;-56.53
1224.69;-56.44
1224.889;-56.35
1225.089;-56.24
1225.288;-56.12
1225.487;-56.05
1225.686;-55.95
1225.885;-55.81
1226.084;-55.69
1226.283;-55.61
1226.482;-55.53
1226.681;-55.42
1226.881;-55.35
1227.08;-55.27
1227.279;-55.22
1227.478;-55.15
1227.677;-55.11
1227.876;-55.11
1228.075;-55.09
1228.274;-55.08
1228.474;-55.09
1228.673;-55.13
1228.872;-55.18
1229.071;-55.18
1229.27;-55.22
1229.469;-55.27
1229.668;-55.31
1229.867;-55.33
1230.066;-55.35
1230.266;-55.38
1230.465;-55.39
1230.664;-55.37
1230.863;-55.36
1231.062;-55.34
1231.261;-55.28
1231.46;-55.21
1231.659;-55.1
1231.858;-54.99
1232.058;-54.83
1232.257;-54.64
1232.456;-54.46
1232.655;-54.26
1232.854;-54.05
1233.053;-53.81
1233.252;-53.6
1233.451;-53.42
1233.65;-53.22
1233.85;-53.05
1234.049;-52.9
1234.248;-52.78
1234.447;-52.67
1234.646;-52.58
1234.845;-52.55
1235.044;-52.51
1235.243;-52.49
1235.443;-52.47
1235.642;-52.49
1235.841;-52.53
1236.04;-52.54
1236.239;-52.57
1236.438;-52.6
1236.637;-52.63
1236.836;-52.63
1237.035;-52.63
1237.235;-52.63
1237.434;-52.6
1237.633;-52.55
1237.832;-52.52
1238.031;-52.45
1238.23;-52.37
1238.429;-52.26
1238.628;-52.16
1238.827;-52.06
1239.027;-51.93
1239.226;-51.8
1239.425;-51.67
1239.624;-51.56
1239.823;-51.44
1240.022;-51.31
1240.221;-51.22
1240.42;-51.12
1240.62;-51.01
1240.819;-50.94
1241.018;-50.84
1241.217;-50.77
1241.416;-50.68
1241.615;-50.6
1241.814;-50.54
1242.013;-50.44
1242.212;-50.36
1242.412;-50.27
1242.611;-50.17
1242.81;-50.06
1243.009;-49.93
1243.208;-49.83
1243.407;-49.7
1243.606;-49.56
1243.805;-49.45
1244.004;-49.32
1244.204;-49.23
1244.403;-49.11
1244.602;-49.01
1244.801;-48.95
1245.0;-48.86
1245.199;-48.8
1245.398;-48.74
1245.597;-48.67
1245.797;-48.61
1245.996;-48.52
1246.195;-48.45
1246.394;-48.33
1246.593;-48.17
1246.792;-48.01
1246.991;-47.79
1247.19;-47.56
1247.389;-47.26
1247.589;-46.95
1247.788;-46.62
1247.987;-46.24
1248.186;-45.88
1248.385;-45.44
1248.584;-45.11
1248.783;-44.74
1248.982;-44.38
1249.181;-44.05
1249.381;-43.71
1249.58;-43.39
1249.779;-43.11
1249.978;-42.83
1250.177;-42.59
1250.376;-42.37
1250.575;-42.16
1250.774;-41.98
1250.974;-41.82
1251.173;-41.69
1251.372;-41.54
1251.571;-41.43
1251.77;-41.33
1251.969;-41.22
1252.168;-41.13
1252.367;-41.02
1252.566;-40.94
1252.766;-40.84
1252.965;-40.74
1253.164;-40.65
1253.363;-40.52
1253.562;-40.42
1253.761;-40.29
1253.96;-40.17
1254.159;-40.06
1254.358;-39.9
1254.558;-39.78
1254.757;-39.63
1254.956;-39.48
1255.155;-39.35
1255.354;-39.19
1255.553;-39.06
1255.752;-38.9
1255.951;-38.75
1256.15;-38.62
1256.35;-38.46
1256.549;-38.32
1256.748;-38.16
1256.947;-37.99
1257.146;-37.84
1257.345;-37.66
1257.544;-37.51
1257.743;-37.31
1257.943;-37.13
1258.142;-36.95
1258.341;-36.75
1258.54;-36.56
1258.739;-36.35
1258.938;-36.14
1259.137;-35.9
1259.336;-35.72
1259.535;-35.52
1259.735;-35.3
1259.934;-35.1
1260.133;-34.88
1260.332;-34.68
1260.531;-34.48
1260.73;-34.28
1260.929;-34.1
1261.128;-33.89
1261.327;-33.71
1261.527;-33.55
1261.726;-33.36
1261.925;-33.21
1262.124;-33.03
1262.323;-32.88
1262.522;-32.72
1262.721;-32.57
1262.92;-32.43
1263.12;-32.27
1263.319;-32.13
1263.518;-31.99
1263.717;-31.84
1263.916;-31.71
1264.115;-31.57
1264.314;-31.43
1264.513;-31.29
1264.712;-31.15
1264.912;-31.03
1265.111;-30.89
1265.31;-30.77
1265.509;-30.65
1265.708;-30.52
1265.907;-30.42
1266.106;-30.3
1266.305;-30.21
1266.504;-30.12
1266.704;-30.04
1266.903;-29.98
1267.102;-29.91
1267.301;-29.87
1267.5;-29.83
1267.699;-29.8
1267.898;-29.8
1268.097;-29.81
1268.297;-29.84
1268.496;-29.88
1268.695;-29.94
1268.894;-30.04
1269.093;-30.14
1269.292;-30.28
1269.491;-30.45
1269.69;-30.64
1269.889;-30.88
1270.089;-31.15
1270.288;-31.48
1270.487;-31.86
1270.686;-32.3
1270.885;-32.81
1271.084;-33.38
1271.283;-34.05
1271.482;-34.8
1271.681;-35.64
1271.881;-36.6
1272.08;-37.61
1272.279;-38.8
1272.478;-39.44
1272.677;-39.84
1272.876;-39.62
1273.075;-38.82
1273.274;-37.67
1273.474;-36.39
1273.673;-34.93
1273.872;-33.95
1274.071;-32.9
1274.27;-31.91
1274.469;-31.02
1274.668;-30.22
1274.867;-29.5
1275.066;-28.87
1275.266;-28.27
1275.465;-27.76
1275.664;-27.29
1275.863;-26.86
1276.062;-26.5
1276.261;-26.17
1276.46;-25.85
1276.659;-25.63
1276.858;-25.42
1277.058;-25.24
1277.257;-25.09
1277.456;-24.99
1277.655;-24.89
1277.854;-24.83
1278.053;-24.78
1278.252;-24.74
1278.451;-24.75
1278.65;-24.74
1278.85;-24.76
1279.049;-24.77
1279.248;-24.79
1279.447;-24.81
1279.646;-24.82
1279.845;-24.84
1280.044;-24.84
1280.243;-24.84
1280.443;-24.82
1280.642;-24.79
1280.841;-24.78
1281.04;-24.72
1281.239;-24.68
1281.438;-24.63
1281.637;-24.57
1281.836;-24.53
1282.035;-24.47
1282.235;-24.44
1282.434;-24.4
1282.633;-24.39
1282.832;-24.39
1283.031;-24.39
1283.23;-24.43
1283.429;-24.47
1283.628;-24.53
1283.827;-24.61
1284.027;-24.72
1284.226;-24.84
1284.425;-24.97
1284.624;-25.14
1284.823;-25.32
1285.022;-25.51
1285.221;-25.73
1285.42;-25.94
1285.62;-26.16
1285.819;-26.39
1286.018;-26.59
1286.217;-26.8
1286.416;-26.96
1286.615;-27.12
1286.814;-27.22
1287.013;-27.25
1287.212;-27.23
1287.412;-27.12
1287.611;-26.95
1287.81;-26.71
1288.009;-26.41
1288.208;-26.07
1288.407;-25.67
1288.606;-25.27
1288.805;-24.83
1289.004;-24.39
1289.204;-23.96
1289.403;-23.52
1289.602;-23.11
1289.801;-22.69
1290.0;-22.3
1290.199;-21.94
1290.398;-21.58
1290.597;-21.27
1290.797;-20.94
1290.996;-20.64
1291.195;-20.38
1291.394;-20.13
1291.593;-19.92
1291.792;-19.72
1291.991;-19.55
1292.19;-19.4
1292.389;-19.27
1292.589;-19.18
1292.788;-19.09
1292.987;-19.04
1293.186;-19.01
1293.385;-19.0
1293.584;-19.02
1293.783;-19.06
1293.982;-19.13
1294.181;-19.22
1294.381;-19.34
1294.58;-19.47
1294.779;-19.63
1294.978;-19.84
1295.177;-20.06
1295.376;-20.32
1295.575;-20.58
1295.774;-20.89
1295.974;-21.23
1296.173;-21.6
1296.372;-22.02
1296.571;-22.44
1296.77;-22.91
1296.969;-23.42
1297.168;-23.96
1297.367;-24.54
1297.566;-25.12
1297.766;-25.73
1297.965;-26.34
1298.164;-26.92
1298.363;-27.46
1298.562;-27.9
1298.761;-28.28
1298.96;-28.37
1299.159;-28.34
1299.358;-28.12
1299.558;-27.73
1299.757;-27.25
1299.956;-26.69
1300.155;-26.1
1300.354;-25.4
1300.553;-24.91
1300.752;-24.34
1300.951;-23.79
1301.15;-23.3
1301.35;-22.81
1301.549;-22.39
1301.748;-21.97
1301.947;-21.58
1302.146;-21.25
1302.345;-20.91
1302.544;-20.64
1302.743;-20.35
1302.943;-20.11
1303.142;-19.89
1303.341;-19.69
1303.54;-19.54
1303.739;-19.37
1303.938;-19.25
1304.137;-19.14
1304.336;-19.05
1304.535;-19.01
1304.735;-18.95
1304.934;-18.93
1305.133;-18.93
1305.332;-18.94
1305.531;-18.99
1305.73;-19.04
1305.929;-19.13
1306.128;-19.23
1306.327;-19.34
1306.527;-19.51
1306.726;-19.66
1306.925;-19.86
1307.124;-20.08
1307.323;-20.32
1307.522;-20.59
1307.721;-20.88
1307.92;-21.22
1308.12;-21.57
1308.319;-21.96
1308.518;-22.39
1308.717;-22.84
1308.916;-23.35
1309.115;-23.88
1309.314;-24.45
1309.513;-25.07
1309.712;-25.7
1309.912;-26.38
1310.111;-27.07
1310.31;-27.77
1310.509;-28.58
1310.708;-29.07
1310.907;-29.57
1311.106;-29.92
1311.305;-30.06
1311.504;-29.97
1311.704;-29.68
1311.903;-29.24
1312.102;-28.7
1312.301;-28.13
1312.5;-27.53
1312.699;-26.95
1312.898;-26.38
1313.097;-25.78
1313.297;-25.37
1313.496;-24.93
1313.695;-24.53
1313.894;-24.14
1314.093;-23.83
1314.292;-23.51
1314.491;-23.25
1314.69;-23.02
1314.889;-22.81
1315.089;-22.64
1315.288;-22.47
1315.487;-22.36
1315.686;-22.25
1315.885;-22.16
1316.084;-22.12
1316.283;-22.07
1316.482;-22.07
1316.681;-22.07
1316.881;-22.09
1317.08;-22.14
1317.279;-22.18
1317.478;-22.27
1317.677;-22.35
1317.876;-22.44
1318.075;-22.55
1318.274;-22.66
1318.474;-22.8
1318.673;-22.93
1318.872;-23.08
1319.071;-23.23
1319.27;-23.37
1319.469;-23.53
1319.668;-23.69
1319.867;-23.84
1320.066;-23.99
1320.266;-24.13
1320.465;-24.27
1320.664;-24.4
1320.863;-24.54
1321.062;-24.64
1321.261;-24.75
1321.46;-24.84
1321.659;-24.92
1321.858;-25.0
1322.058;-25.06
1322.257;-25.12
1322.456;-25.16
1322.655;-25.2
1322.854;-25.24
1323.053;-25.27
1323.252;-25.32
1323.451;-25.34
1323.65;-25.37
1323.85;-25.41
1324.049;-25.44
1324.248;-25.49
1324.447;-25.52
1324.646;-25.57
1324.845;-25.62
1325.044;-25.67
1325.243;-25.75
1325.443;-25.81
1325.642;-25.9
1325.841;-25.97
1326.04;-26.06
1326.239;-26.15
1326.438;-26.24
1326.637;-26.35
1326.836;-26.44
1327.035;-26.55
1327.235;-26.66
1327.434;-26.77
1327.633;-26.9
1327.832;-27.02
1328.031;-27.15
1328.23;-27.28
1328.429;-27.42
1328.628;-27.57
1328.827;-27.71
1329.027;-27.88
1329.226;-28.03
1329.425;-28.2
1329.624;-28.39
1329.823;-28.61
1330.022;-28.78
1330.221;-28.99
1330.42;-29.22
1330.62;-29.46
1330.819;-29.72
1331.018;-30.01
1331.217;-30.3
1331.416;-30.64
1331.615;-30.97
1331.814;-31.35
1332.013;-31.75
1332.212;-32.17
1332.412;-32.64
1332.611;-33.14
1332.81;-33.68
1333.009;-34.24
1333.208;-34.84
1333.407;-35.49
1333.606;-36.16
1333.805;-36.87
1334.004;-37.59
1334.204;-38.32
1334.403;-39.15
1334.602;-39.68
1334.801;-40.27
1335.0;-40.72
1335.199;-40.95
1335.398;-40.94
1335.597;-40.83
1335.797;-40.6
1335.996;-40.27
1336.195;-39.88
1336.394;-39.46
1336.593;-39.07
1336.792;-38.68
1336.991;-38.35
1337.19;-38.04
1337.389;-37.79
1337.589;-37.59
1337.788;-37.42
1337.987;-37.31
1338.186;-37.23
1338.385;-37.19
1338.584;-37.2
1338.783;-37.24
1338.982;-37.34
1339.181;-37.46
1339.381;-37.63
1339.58;-37.83
1339.779;-38.06
1339.978;-38.34
1340.177;-38.64
1340.376;-39.0
1340.575;-39.37
1340.774;-39.77
1340.974;-40.2
1341.173;-40.66
1341.372;-41.15
1341.571;-41.64
1341.77;-42.18
1341.969;-42.72
1342.168;-43.28
1342.367;-43.86
1342.566;-44.42
1342.766;-44.99
1342.965;-45.53
1343.164;-46.07
1343.363;-46.57
1343.562;-47.02
1343.761;-47.45
1343.96;-47.8
1344.159;-48.1
1344.358;-48.34
1344.558;-48.58
1344.757;-48.68
1344.956;-48.76
1345.155;-48.83
1345.354;-48.85
1345.553;-48.87
1345.752;-48.86
1345.951;-48.85
1346.15;-48.84
1346.35;-48.82
1346.549;-48.83
1346.748;-48.81
1346.947;-48.8
1347.146;-48.8
1347.345;-48.78
1347.544;-48.84
1347.743;-48.89
1347.943;-48.94
1348.142;-48.95
1348.341;-48.98
1348.54;-48.98
1348.739;-48.99
1348.938;-49.01
1349.137;-49.01
1349.336;-49.01
1349.535;-49.04
1349.735;-49.03
1349.934;-49.07
1350.133;-49.11
1350.332;-49.21
1350.531;-49.27
1350.73;-49.28
1350.929;-49.29
1351.128;-49.26
1351.327;-49.28
1351.527;-49.32
1351.726;-49.42
1351.925;-49.48
1352.124;-49.53
1352.323;-49.61
1352.522;-49.7
1352.721;-49.77
1352.92;-49.84
1353.12;-50.03
1353.319;-50.09
1353.518;-50.2
1353.717;-50.36
1353.916;-50.42
1354.115;-50.56
1354.314;-50.78
1354.513;-50.97
1354.712;-51.3
1354.912;-51.6
1355.111;-51.82
1355.31;-51.99
1355.509;-52.03
1355.708;-52.35
1355.907;-52.66
1356.106;-52.89
1356.305;-53.03
1356.504;-53.21
1356.704;-53.18
1356.903;-53.39
1357.102;-53.83
1357.301;-54.1
1357.5;-54.34
1357.699;-54.57
1357.898;-54.66
1358.097;-54.76
1358.297;-54.97
1358.496;-55.22
1358.695;-55.37
1358.894;-55.54
1359.093;-55.7
1359.292;-55.73
1359.491;-56.11
1359.69;-56.39
1359.889;-56.58
1360.089;-56.62
1360.288;-56.63
1360.487;-56.59
1360.686;-56.73
1360.885;-57.06
1361.084;-57.31
1361.283;-57.47
1361.482;-57.62
1361.681;-57.81
1361.881;-57.91
1362.08;-58.11
1362.279;-58.76
1362.478;-58.78
1362.677;-58.91
1362.876;-58.78
1363.075;-58.75
1363.274;-58.5
1363.474;-58.6
1363.673;-58.7
1363.872;-58.86
1364.071;-59.1
1364.27;-59.32
1364.469;-59.68
1364.668;-60.19
1364.867;-60.48
1365.066;-60.51
1365.266;-60.78
1365.465;-60.74
1365.664;-60.88
1365.863;-61.01
1366.062;-61.1
1366.261;-61.17
1366.46;-61.3
1366.659;-61.54
1366.858;-61.89
1367.058;-62.12
1367.257;-62.32
1367.456;-62.7
1367.655;-62.98
1367.854;-63.38
1368.053;-63.62
1368.252;-63.67
1368.451;-64.13
1368.65;-64.31
1368.85;-64.55
1369.049;-64.65
1369.248;-64.72
1369.447;-64.72
1369.646;-64.92
1369.845;-65.32
1370.044;-65.68
1370.243;-65.87
1370.443;-66.02
1370.642;-66.11
1370.841;-66.49
1371.04;-66.85
1371.239;-67.08
1371.438;-67.22
1371.637;-67.32
1371.836;-67.34
1372.035;-67.57
1372.235;-67.97
1372.434;-68.2
1372.633;-68.37
1372.832;-68.44
1373.031;-68.67
1373.23;-68.87
1373.429;-69.24
1373.628;-69.58
1373.827;-69.85
1374.027;-69.97
1374.226;-70.26
1374.425;-70.56
1374.624;-70.84
1374.823;-71.52
1375.022;-71.71
1375.221;-72.4
1375.42;-72.48
1375.62;-72.6
1375.819;-73.31
1376.018;-73.93
1376.217;-73.87
1376.416;-74.46
1376.615;-74.65
1376.814;-75.29
1377.013;-74.95
1377.212;-75.38
1377.412;-75.21
1377.611;-75.36
1377.81;-75.22
1378.009;-75.08
1378.208;-74.96
1378.407;-74.86
1378.606;-75.5
1378.805;-75.31
1379.004;-75.18
1379.204;-74.95
1379.403;-74.58
1379.602;-74.39
1379.801;-73.96
1380.0;-73.96
1380.199;-74.21
1380.398;-74.14
1380.597;-74.11
1380.797;-74.95
1380.996;-74.87
1381.195;-74.8
1381.394;-74.47
1381.593;-74.36
1381.792;-74.51
1381.991;-74.44
1382.19;-74.63
1382.389;-74.84
1382.589;-75.34
1382.788;-76.47
1382.987;-76.37
1383.186;-77.14
1383.385;-76.42
1383.584;-76.64
1383.783;-77.27
1383.982;-77.65
1384.181;-78.97
1384.381;-79.03
1384.58;-78.66
1384.779;-79.63
1384.978;-79.99
1385.177;-79.73
1385.376;-81.02
1385.575;-80.19
1385.774;-82.3
1385.974;-80.97
1386.173;-81.69
1386.372;-84.88
1386.571;-84.88
1386.77;-82.36
1386.969;-82.71
1387.168;-82.11
1387.367;-83.32
1387.566;-85.79
1387.766;-83.32
1387.965;-85.94
1388.164;-82.85
1388.363;-82.43
1388.562;-81.21
1388.761;-81.42
1388.96;-83.66
1389.159;-82.5
1389.358;-82.36
1389.558;-82.3
1389.757;-83.32
1389.956;-83.16
1390.155;-80.92
1390.354;-82.71
1390.553;-83.32
1390.752;-84.03
1390.951;-82.5
1391.15;-82.23
1391.35;-80.92
1391.549;-81.76
1391.748;-83.76
1391.947;-81.48
1392.146;-80.75
1392.345;-81.22
1392.544;-80.75
1392.743;-81.03
1392.943;-81.12
1393.142;-83.33
1393.341;-82.37
1393.54;-81.94
1393.739;-83.58
1393.938;-82.94
1394.137;-81.94
1394.336;-85.8
1394.535;-82.0
1394.735;-82.94
1394.934;-81.82
1395.133;-84.44
1395.332;-89.78
1395.531;-83.94
1395.73;-82.94
1395.929;-81.03
1396.128;-82.37
1396.327;-83.41
1396.527;-81.33
1396.726;-83.01
1396.925;-82.24
1397.124;-86.59
1397.323;-83.85
1397.522;-81.28
1397.721;-81.48
1397.92;-80.48
1398.12;-83.41
1398.319;-83.25
1398.518;-81.55
1398.717;-81.13
1398.916;-82.52
1399.115;-81.77
1399.314;-82.87
1399.513;-85.26
1399.712;-83.95
1399.912;-86.27
1400.111;-85.02
1400.31;-82.25
1400.509;-88.54
1400.708;-82.13
1400.907;-81.95
1401.106;-83.18
1401.305;-81.44
1401.504;-81.49
1401.704;-87.36
1401.903;-82.95
1402.102;-84.14
1402.301;-81.77
1402.5;-85.53
1402.699;-81.04
1402.898;-83.02
1403.097;-81.04
1403.297;-84.45
1403.496;-82.95
1403.695;-83.1
1403.894;-81.49
1404.093;-87.16
1404.292;-82.52
1404.491;-81.77
1404.69;-81.83
1404.889;-81.29
1405.089;-86.78
1405.288;-81.83
1405.487;-82.13
1405.686;-80.37
1405.885;-84.35
1406.084;-84.05
1406.283;-82.13
1406.482;-82.38
1406.681;-80.68
1406.881;-81.3
1407.08;-84.25
1407.279;-82.14
1407.478;-84.57
1407.677;-85.27
1407.876;-82.39
1408.075;-83.19
1408.274;-83.96
1408.474;-84.06
1408.673;-83.96
1408.872;-81.56
1409.071;-84.15
1409.27;-82.02
1409.469;-85.03
1409.668;-83.87
1409.867;-82.53
1410.066;-85.03
1410.266;-86.12
1410.465;-82.74
1410.664;-83.19
1410.863;-84.46
1411.062;-85.97
1411.261;-84.57
1411.46;-84.15
1411.659;-83.27
1411.858;-82.33
1412.058;-84.91
1412.257;-86.28
1412.456;-85.54
1412.655;-83.6
1412.854;-83.43
1413.053;-81.9
1413.252;-81.45
1413.451;-80.86
1413.65;-80.87
1413.85;-82.75
1414.049;-82.54
1414.248;-81.91
1414.447;-82.47
1414.646;-82.21
1414.845;-81.31
1415.044;-82.97
1415.243;-84.26
1415.443;-82.34
1415.642;-83.97
1415.841;-81.15
1416.04;-82.4
1416.239;-81.36
1416.438;-83.7
1416.637;-84.37
1416.836;-81.36
1417.035;-83.79
1417.235;-82.27
1417.434;-81.01
1417.633;-81.57
1417.832;-81.46
1418.031;-83.12
1418.23;-80.82
1418.429;-80.78
1418.628;-81.46
1418.827;-81.46
1419.027;-83.97
1419.226;-82.75
1419.425;-85.28
1419.624;-82.15
1419.823;-80.87
1420.022;-82.54
1420.221;-84.16
1420.42;-82.34
1420.62;-82.97
1420.819;-81.46
1421.018;-84.07
1421.217;-81.79
1421.416;-82.03
1421.615;-80.83
1421.814;-84.17
1422.013;-81.58
1422.212;-83.8
1422.412;-82.1
1422.611;-83.62
1422.81;-80.61
1423.009;-80.92
1423.208;-81.69
1423.407;-81.8
1423.606;-81.47
1423.805;-83.37
1424.004;-80.92
1424.204;-82.22
1424.403;-83.29
1424.602;-81.37
1424.801;-81.58
1425.0;-82.04
