Wavelength (nm);Intensity (dBm)
1131.0;1131.0
1200.0;-61.44
1200.199;-61.36
1200.398;-61.32
1200.597;-61.31
1200.797;-61.25
1200.996;-61.17
1201.195;-61.15
1201.394;-61.11
1201.593;-61.07
1201.792;-61.04
1201.991;-61.0
1202.19;-60.97
1202.389;-60.94
1202.589;-60.96
1202.788;-60.92
1202.987;-60.88
1203.186;-60.88
1203.385;-60.86
1203.584;-60.82
1203.783;-60.81
1203.982;-60.81
1204.181;-60.81
1204.381;-60.79
1204.58;-60.8
1204.779;-60.8
1204.978;-60.81
1205.177;-60.82
1205.376;-60.79
1205.575;-60.79
1205.774;-60.8
1205.974;-60.79
1206.173;-60.77
1206.372;-60.71
1206.571;-60.7
1206.77;-60.67
1206.969;-60.57
1207.168;-60.53
1207.367;-60.48
1207.566;-60.41
1207.766;-60.33
1207.965;-60.23
1208.164;-60.18
1208.363;-60.14
1208.562;-60.03
1208.761;-59.95
1208.96;-59.87
1209.159;-59.86
1209.358;-59.77
1209.558;-59.69
1209.757;-59.66
1209.956;-59.61
1210.155;-59.58
1210.354;-59.48
1210.553;-59.43
1210.752;-59.43
1210.951;-59.41
1211.15;-59.35
1211.35;-59.28
1211.549;-59.27
1211.748;-59.28
1211.947;-59.23
1212.146;-59.18
1212.345;-59.17
1212.544;-59.19
1212.743;-59.17
1212.943;-59.1
1213.142;-59.12
1213.341;-59.13
1213.54;-59.12
1213.739;-59.09
1213.938;-59.06
1214.137;-59.09
1214.336;-59.07
1214.535;-59.04
1214.735;-59.02
1214.934;-59.03
1215.133;-59.02
1215.332;-58.93
1215.531;-58.92
1215.73;-58.93
1215.929;-58.92
1216.128;-58.85
1216.327;-58.8
1216.527;-58.77
1216.726;-58.77
1216.925;-58.72
1217.124;-58.66
1217.323;-58.63
1217.522;-58.63
1217.721;-58.59
1217.92;-58.52
1218.12;-58.51
1218.319;-58.5
1218.518;-58.49
1218.717;-58.43
1218.916;-58.4
1219.115;-58.4
1219.314;-58.36
1219.513;-58.33
1219.712;-58.3
1219.912;-58.29
1220.111;-58.27
1220.31;-58.18
1220.509;-58.13
1220.708;-58.12
1220.907;-58.08
1221.106;-58.0
1221.305;-57.89
1221.504;-57.84
1221.704;-57.8
1221.903;-57.69
1222.102;-57.6
1222.301;-57.54
1222.5;-57.45
1222.699;-57.37
1222.898;-57.26
1223.097;-57.21
1223.297;-57.12
1223.496;-57.03
1223.695;-56.95
1223.894;-56.88
1224.093;-56.83
1224.292;-56.74
1224.491;-56.64
1224.69;-56.59
1224.889;-56.52
1225.089;-56.44
1225.288;-56.33
1225.487;-56.25
1225.686;-56.19
1225.885;-56.08
1226.084;-55.97
1226.283;-55.89
1226.482;-55.79
1226.681;-55.69
1226.881;-55.6
1227.08;-55.54
1227.279;-55.47
1227.478;-55.4
1227.677;-55.34
1227.876;-55.31
1228.075;-55.3
1228.274;-55.25
1228.474;-55.24
1228.673;-55.25
1228.872;-55.26
1229.071;-55.26
1229.27;-55.27
1229.469;-55.29
1229.668;-55.31
1229.867;-55.29
1230.066;-55.32
1230.266;-55.33
1230.465;-55.33
1230.664;-55.32
1230.863;-55.31
1231.062;-55.32
1231.261;-55.27
1231.46;-55.22
1231.659;-55.14
1231.858;-55.05
1232.058;-54.95
1232.257;-54.78
1232.456;-54.62
1232.655;-54.44
1232.854;-54.22
1233.053;-54.03
1233.252;-53.81
1233.451;-53.61
1233.65;-53.41
1233.85;-53.22
1234.049;-53.08
1234.248;-52.93
1234.447;-52.8
1234.646;-52.7
1234.845;-52.62
1235.044;-52.57
1235.243;-52.52
1235.443;-52.49
1235.642;-52.49
1235.841;-52.48
1236.04;-52.5
1236.239;-52.49
1236.438;-52.51
1236.637;-52.53
1236.836;-52.52
1237.035;-52.53
1237.235;-52.52
1237.434;-52.51
1237.633;-52.47
1237.832;-52.43
1238.031;-52.39
1238.23;-52.32
1238.429;-52.23
1238.628;-52.14
1238.827;-52.04
1239.027;-51.93
1239.226;-51.8
1239.425;-51.68
1239.624;-51.56
1239.823;-51.43
1240.022;-51.31
1240.221;-51.2
1240.42;-51.11
1240.62;-51.0
1240.819;-50.9
1241.018;-50.82
1241.217;-50.74
1241.416;-50.68
1241.615;-50.58
1241.814;-50.53
1242.013;-50.46
1242.212;-50.37
1242.412;-50.31
1242.611;-50.21
1242.81;-50.12
1243.009;-50.0
1243.208;-49.89
1243.407;-49.79
1243.606;-49.65
1243.805;-49.53
1244.004;-49.42
1244.204;-49.3
1244.403;-49.2
1244.602;-49.09
1244.801;-49.02
1245.0;-48.93
1245.199;-48.85
1245.398;-48.81
1245.597;-48.74
1245.797;-48.68
1245.996;-48.6
1246.195;-48.53
1246.394;-48.46
1246.593;-48.31
1246.792;-48.18
1246.991;-48.0
1247.19;-47.78
1247.389;-47.54
1247.589;-47.24
1247.788;-46.93
1247.987;-46.57
1248.186;-46.2
1248.385;-45.77
1248.584;-45.44
1248.783;-45.06
1248.982;-44.67
1249.181;-44.31
1249.381;-43.95
1249.58;-43.59
1249.779;-43.3
1249.978;-42.98
1250.177;-42.7
1250.376;-42.45
1250.575;-42.2
1250.774;-41.99
1250.974;-41.79
1251.173;-41.61
1251.372;-41.44
1251.571;-41.28
1251.77;-41.15
1251.969;-41.01
1252.168;-40.88
1252.367;-40.74
1252.566;-40.63
1252.766;-40.51
1252.965;-40.39
1253.164;-40.27
1253.363;-40.15
1253.562;-40.02
1253.761;-39.9
1253.96;-39.77
1254.159;-39.64
1254.358;-39.49
1254.558;-39.36
1254.757;-39.23
1254.956;-39.08
1255.155;-38.95
1255.354;-38.8
1255.553;-38.66
1255.752;-38.52
1255.951;-38.37
1256.15;-38.24
1256.35;-38.08
1256.549;-37.94
1256.748;-37.79
1256.947;-37.63
1257.146;-37.48
1257.345;-37.3
1257.544;-37.14
1257.743;-36.97
1257.943;-36.78
1258.142;-36.61
1258.341;-36.41
1258.54;-36.22
1258.739;-36.02
1258.938;-35.78
1259.137;-35.62
1259.336;-35.41
1259.535;-35.23
1259.735;-35.01
1259.934;-34.81
1260.133;-34.61
1260.332;-34.41
1260.531;-34.24
1260.73;-34.03
1260.929;-33.85
1261.128;-33.66
1261.327;-33.48
1261.527;-33.33
1261.726;-33.15
1261.925;-32.99
1262.124;-32.82
1262.323;-32.66
1262.522;-32.53
1262.721;-32.37
1262.92;-32.23
1263.12;-32.08
1263.319;-31.93
1263.518;-31.81
1263.717;-31.66
1263.916;-31.52
1264.115;-31.38
1264.314;-31.23
1264.513;-31.12
1264.712;-30.97
1264.912;-30.85
1265.111;-30.71
1265.31;-30.57
1265.509;-30.47
1265.708;-30.34
1265.907;-30.23
1266.106;-30.12
1266.305;-30.01
1266.504;-29.93
1266.704;-29.84
1266.903;-29.77
1267.102;-29.68
1267.301;-29.62
1267.5;-29.59
1267.699;-29.54
1267.898;-29.52
1268.097;-29.51
1268.297;-29.5
1268.496;-29.53
1268.695;-29.55
1268.894;-29.61
1269.093;-29.67
1269.292;-29.76
1269.491;-29.89
1269.69;-30.03
1269.889;-30.22
1270.089;-30.42
1270.288;-30.67
1270.487;-30.98
1270.686;-31.32
1270.885;-31.74
1271.084;-32.2
1271.283;-32.74
1271.482;-33.36
1271.681;-34.08
1271.881;-34.92
1272.08;-35.84
1272.279;-36.9
1272.478;-38.05
1272.677;-39.45
1272.876;-40.23
1273.075;-40.73
1273.274;-40.48
1273.474;-39.52
1273.673;-38.21
1273.872;-36.81
1274.071;-35.27
1274.27;-34.22
1274.469;-33.11
1274.668;-32.13
1274.867;-31.21
1275.066;-30.42
1275.266;-29.68
1275.465;-29.03
1275.664;-28.46
1275.863;-27.93
1276.062;-27.48
1276.261;-27.05
1276.46;-26.69
1276.659;-26.36
1276.858;-26.03
1277.058;-25.85
1277.257;-25.64
1277.456;-25.49
1277.655;-25.34
1277.854;-25.22
1278.053;-25.14
1278.252;-25.07
1278.451;-25.04
1278.65;-25.0
1278.85;-25.0
1279.049;-25.0
1279.248;-25.01
1279.447;-25.04
1279.646;-25.05
1279.845;-25.07
1280.044;-25.09
1280.243;-25.1
1280.443;-25.13
1280.642;-25.12
1280.841;-25.13
1281.04;-25.11
1281.239;-25.1
1281.438;-25.1
1281.637;-25.08
1281.836;-25.08
1282.035;-25.06
1282.235;-25.05
1282.434;-25.07
1282.633;-25.09
1282.832;-25.13
1283.031;-25.16
1283.23;-25.22
1283.429;-25.29
1283.628;-25.38
1283.827;-25.51
1284.027;-25.63
1284.226;-25.79
1284.425;-25.95
1284.624;-26.15
1284.823;-26.36
1285.022;-26.57
1285.221;-26.81
1285.42;-27.04
1285.62;-27.27
1285.819;-27.51
1286.018;-27.7
1286.217;-27.88
1286.416;-28.01
1286.615;-28.1
1286.814;-28.12
1287.013;-28.05
1287.212;-27.92
1287.412;-27.7
1287.611;-27.42
1287.81;-27.09
1288.009;-26.7
1288.208;-26.29
1288.407;-25.84
1288.606;-25.37
1288.805;-24.92
1289.004;-24.45
1289.204;-24.01
1289.403;-23.56
1289.602;-23.14
1289.801;-22.74
1290.0;-22.34
1290.199;-21.99
1290.398;-21.63
1290.597;-21.32
1290.797;-21.0
1290.996;-20.7
1291.195;-20.45
1291.394;-20.2
1291.593;-19.98
1291.792;-19.78
1291.991;-19.6
1292.19;-19.46
1292.389;-19.32
1292.589;-19.21
1292.788;-19.11
1292.987;-19.05
1293.186;-19.01
1293.385;-18.98
1293.584;-18.99
1293.783;-19.0
1293.982;-19.05
1294.181;-19.12
1294.381;-19.22
1294.58;-19.34
1294.779;-19.47
1294.978;-19.65
1295.177;-19.83
1295.376;-20.05
1295.575;-20.3
1295.774;-20.57
1295.974;-20.89
1296.173;-21.22
1296.372;-21.59
1296.571;-22.0
1296.77;-22.44
1296.969;-22.93
1297.168;-23.45
1297.367;-24.03
1297.566;-24.63
1297.766;-25.28
1297.965;-26.0
1298.164;-26.73
1298.363;-27.52
1298.562;-28.44
1298.761;-29.06
1298.96;-29.71
1299.159;-30.21
1299.358;-30.48
1299.558;-30.43
1299.757;-30.14
1299.956;-29.59
1300.155;-28.92
1300.354;-28.18
1300.553;-27.4
1300.752;-26.67
1300.951;-25.81
1301.15;-25.28
1301.35;-24.65
1301.549;-24.09
1301.748;-23.54
1301.947;-23.04
1302.146;-22.61
1302.345;-22.18
1302.544;-21.82
1302.743;-21.46
1302.943;-21.14
1303.142;-20.87
1303.341;-20.6
1303.54;-20.39
1303.739;-20.17
1303.938;-20.0
1304.137;-19.85
1304.336;-19.71
1304.535;-19.62
1304.735;-19.53
1304.934;-19.47
1305.133;-19.43
1305.332;-19.41
1305.531;-19.44
1305.73;-19.45
1305.929;-19.51
1306.128;-19.58
1306.327;-19.67
1306.527;-19.8
1306.726;-19.94
1306.925;-20.11
1307.124;-20.3
1307.323;-20.52
1307.522;-20.78
1307.721;-21.05
1307.92;-21.37
1308.12;-21.71
1308.319;-22.09
1308.518;-22.51
1308.717;-22.96
1308.916;-23.47
1309.115;-24.01
1309.314;-24.62
1309.513;-25.28
1309.712;-25.99
1309.912;-26.77
1310.111;-27.61
1310.31;-28.74
1310.509;-29.55
1310.708;-30.62
1310.907;-31.7
1311.106;-32.75
1311.305;-33.6
1311.504;-34.07
1311.704;-34.06
1311.903;-33.56
1312.102;-32.77
1312.301;-31.84
1312.5;-30.89
1312.699;-29.98
1312.898;-29.11
1313.097;-28.34
1313.297;-27.63
1313.496;-27.0
1313.695;-26.44
1313.894;-25.85
1314.093;-25.5
1314.292;-25.08
1314.491;-24.74
1314.69;-24.43
1314.889;-24.14
1315.089;-23.91
1315.288;-23.69
1315.487;-23.53
1315.686;-23.37
1315.885;-23.24
1316.084;-23.16
1316.283;-23.07
1316.482;-23.04
1316.681;-23.01
1316.881;-23.0
1317.08;-23.03
1317.279;-23.05
1317.478;-23.12
1317.677;-23.17
1317.876;-23.25
1318.075;-23.34
1318.274;-23.44
1318.474;-23.57
1318.673;-23.7
1318.872;-23.84
1319.071;-23.98
1319.27;-24.13
1319.469;-24.29
1319.668;-24.45
1319.867;-24.62
1320.066;-24.76
1320.266;-24.92
1320.465;-25.07
1320.664;-25.21
1320.863;-25.36
1321.062;-25.47
1321.261;-25.59
1321.46;-25.7
1321.659;-25.78
1321.858;-25.88
1322.058;-25.93
1322.257;-26.0
1322.456;-26.04
1322.655;-26.07
1322.854;-26.11
1323.053;-26.13
1323.252;-26.16
1323.451;-26.17
1323.65;-26.18
1323.85;-26.2
1324.049;-26.2
1324.248;-26.24
1324.447;-26.25
1324.646;-26.28
1324.845;-26.3
1325.044;-26.34
1325.243;-26.39
1325.443;-26.43
1325.642;-26.5
1325.841;-26.55
1326.04;-26.61
1326.239;-26.68
1326.438;-26.76
1326.637;-26.86
1326.836;-26.94
1327.035;-27.04
1327.235;-27.14
1327.434;-27.24
1327.633;-27.37
1327.832;-27.49
1328.031;-27.62
1328.23;-27.76
1328.429;-27.9
1328.628;-28.05
1328.827;-28.2
1329.027;-28.38
1329.226;-28.59
1329.425;-28.76
1329.624;-28.94
1329.823;-29.15
1330.022;-29.37
1330.221;-29.6
1330.42;-29.87
1330.62;-30.13
1330.819;-30.42
1331.018;-30.73
1331.217;-31.07
1331.416;-31.44
1331.615;-31.81
1331.814;-32.24
1332.013;-32.68
1332.212;-33.16
1332.412;-33.68
1332.611;-34.25
1332.81;-34.86
1333.009;-35.5
1333.208;-36.2
1333.407;-36.95
1333.606;-37.75
1333.805;-38.8
1334.004;-39.55
1334.204;-40.5
1334.403;-41.45
1334.602;-42.38
1334.801;-43.18
1335.0;-43.77
1335.199;-44.08
1335.398;-44.06
1335.597;-43.77
1335.797;-43.29
1335.996;-42.72
1336.195;-42.11
1336.394;-41.5
1336.593;-40.96
1336.792;-40.45
1336.991;-40.02
1337.19;-39.65
1337.389;-39.33
1337.589;-39.09
1337.788;-38.88
1337.987;-38.75
1338.186;-38.64
1338.385;-38.6
1338.584;-38.59
1338.783;-38.64
1338.982;-38.73
1339.181;-38.85
1339.381;-39.03
1339.58;-39.23
1339.779;-39.47
1339.978;-39.76
1340.177;-40.08
1340.376;-40.43
1340.575;-40.81
1340.774;-41.22
1340.974;-41.65
1341.173;-42.1
1341.372;-42.59
1341.571;-43.07
1341.77;-43.58
1341.969;-44.08
1342.168;-44.58
1342.367;-45.07
1342.566;-45.53
1342.766;-45.98
1342.965;-46.36
1343.164;-46.71
1343.363;-47.0
1343.562;-47.23
1343.761;-47.43
1343.96;-47.56
1344.159;-47.66
1344.358;-47.71
1344.558;-47.72
1344.757;-47.73
1344.956;-47.7
1345.155;-47.67
1345.354;-47.62
1345.553;-47.58
1345.752;-47.55
1345.951;-47.52
1346.15;-47.51
1346.35;-47.48
1346.549;-47.49
1346.748;-47.48
1346.947;-47.48
1347.146;-47.5
1347.345;-47.5
1347.544;-47.58
1347.743;-47.65
1347.943;-47.72
1348.142;-47.77
1348.341;-47.83
1348.54;-47.87
1348.739;-47.91
1348.938;-47.98
1349.137;-48.04
1349.336;-48.08
1349.535;-48.16
1349.735;-48.21
1349.934;-48.31
1350.133;-48.44
1350.332;-48.57
1350.531;-48.69
1350.73;-48.77
1350.929;-48.85
1351.128;-48.88
1351.327;-48.97
1351.527;-49.06
1351.726;-49.22
1351.925;-49.34
1352.124;-49.44
1352.323;-49.58
1352.522;-49.72
1352.721;-49.83
1352.92;-49.94
1353.12;-50.17
1353.319;-50.26
1353.518;-50.4
1353.717;-50.59
1353.916;-50.68
1354.115;-50.84
1354.314;-51.08
1354.513;-51.29
1354.712;-51.65
1354.912;-51.97
1355.111;-52.21
1355.31;-52.4
1355.509;-52.46
1355.708;-52.79
1355.907;-53.13
1356.106;-53.38
1356.305;-53.54
1356.504;-53.75
1356.704;-53.74
1356.903;-53.97
1357.102;-54.43
1357.301;-54.73
1357.5;-55.01
1357.699;-55.26
1357.898;-55.38
1358.097;-55.51
1358.297;-55.73
1358.496;-56.01
1358.695;-56.18
1358.894;-56.37
1359.093;-56.54
1359.292;-56.6
1359.491;-56.98
1359.69;-57.26
1359.889;-57.46
1360.089;-57.5
1360.288;-57.51
1360.487;-57.46
1360.686;-57.58
1360.885;-57.9
1361.084;-58.14
1361.283;-58.26
1361.482;-58.38
1361.681;-58.66
1361.881;-58.66
1362.08;-58.82
1362.279;-59.22
1362.478;-59.39
1362.677;-59.49
1362.876;-59.32
1363.075;-59.26
1363.274;-58.98
1363.474;-59.02
1363.673;-59.09
1363.872;-59.19
1364.071;-59.4
1364.27;-59.58
1364.469;-59.86
1364.668;-60.37
1364.867;-60.6
1365.066;-60.57
1365.266;-60.75
1365.465;-60.7
1365.664;-60.78
1365.863;-60.85
1366.062;-60.87
1366.261;-60.9
1366.46;-61.01
1366.659;-61.2
1366.858;-61.46
1367.058;-61.64
1367.257;-61.8
1367.456;-62.13
1367.655;-62.35
1367.854;-62.71
1368.053;-62.89
1368.252;-62.95
1368.451;-63.38
1368.65;-63.46
1368.85;-63.67
1369.049;-63.75
1369.248;-63.79
1369.447;-63.75
1369.646;-63.91
1369.845;-64.32
1370.044;-64.64
1370.243;-64.89
1370.443;-65.07
1370.642;-65.16
1370.841;-65.53
1371.04;-65.98
1371.239;-66.25
1371.438;-66.4
1371.637;-66.56
1371.836;-66.59
1372.035;-66.91
1372.235;-67.29
1372.434;-67.67
1372.633;-68.07
1372.832;-68.11
1373.031;-68.38
1373.23;-68.78
1373.429;-69.27
1373.628;-69.44
1373.827;-69.88
1374.027;-70.17
1374.226;-70.63
1374.425;-71.26
1374.624;-71.86
1374.823;-72.45
1375.022;-72.77
1375.221;-73.31
1375.42;-74.1
1375.62;-74.33
1375.819;-75.02
1376.018;-74.98
1376.217;-76.19
1376.416;-76.46
1376.615;-76.55
1376.814;-76.68
1377.013;-76.68
1377.212;-77.14
1377.412;-76.97
1377.611;-76.54
1377.81;-77.37
1378.009;-76.3
1378.208;-76.14
1378.407;-75.94
1378.606;-75.44
1378.805;-75.44
1379.004;-75.26
1379.204;-74.71
1379.403;-74.87
1379.602;-74.8
1379.801;-74.35
1380.0;-74.19
1380.199;-74.28
1380.398;-74.52
1380.597;-74.51
1380.797;-75.06
1380.996;-74.74
1381.195;-75.13
1381.394;-74.66
1381.593;-74.82
1381.792;-74.5
1381.991;-74.99
1382.19;-74.71
1382.389;-75.4
1382.589;-76.05
1382.788;-75.96
1382.987;-77.09
1383.186;-76.91
1383.385;-77.65
1383.584;-77.25
1383.783;-77.72
1383.982;-77.18
1384.181;-78.37
1384.381;-79.03
1384.58;-78.98
1384.779;-79.35
1384.978;-79.42
1385.177;-80.74
1385.376;-83.32
1385.575;-81.21
1385.774;-83.24
1385.974;-83.32
1386.173;-82.3
1386.372;-84.33
1386.571;-82.36
1386.77;-83.75
1386.969;-80.6
1387.168;-83.08
1387.367;-83.4
1387.566;-82.17
1387.766;-81.87
1387.965;-82.85
1388.164;-82.5
1388.363;-97.55
1388.562;-81.64
1388.761;-83.24
1388.96;-82.36
1389.159;-81.69
1389.358;-81.27
1389.558;-81.75
1389.757;-80.47
1389.956;-81.32
1390.155;-80.03
1390.354;-82.78
1390.553;-83.48
1390.752;-82.05
1390.951;-81.75
1391.15;-82.85
1391.35;-81.53
1391.549;-85.52
1391.748;-83.25
1391.947;-84.04
1392.146;-84.04
1392.345;-88.02
1392.544;-85.13
1392.743;-83.01
1392.943;-82.37
1393.142;-80.28
1393.341;-82.24
1393.54;-81.17
1393.739;-81.43
1393.938;-82.72
1394.137;-82.06
1394.336;-83.01
1394.535;-81.12
1394.735;-83.01
1394.934;-82.94
1395.133;-83.25
1395.332;-83.41
1395.531;-82.44
1395.73;-82.94
1395.929;-80.4
1396.128;-80.53
1396.327;-85.52
1396.527;-82.79
1396.726;-82.72
1396.925;-83.76
1397.124;-82.51
1397.323;-83.94
1397.522;-81.88
1397.721;-81.22
1397.92;-83.41
1398.12;-80.93
1398.319;-82.18
1398.518;-81.89
1398.717;-80.71
1398.916;-80.67
1399.115;-82.13
1399.314;-81.49
1399.513;-85.26
1399.712;-82.52
1399.912;-80.67
1400.111;-84.78
1400.31;-82.95
1400.509;-84.9
1400.708;-89.79
1400.907;-81.89
1401.106;-83.95
1401.305;-83.02
1401.504;-82.25
1401.704;-82.87
1401.903;-84.35
1402.102;-83.5
1402.301;-81.95
1402.5;-81.44
1402.699;-83.1
1402.898;-82.52
1403.097;-82.01
1403.297;-80.49
1403.496;-83.1
1403.695;-82.52
1403.894;-82.38
1404.093;-80.58
1404.292;-82.13
1404.491;-81.44
1404.69;-82.73
1404.889;-81.34
1405.089;-82.45
1405.288;-83.42
1405.487;-82.38
1405.686;-81.34
1405.885;-85.96
1406.084;-82.38
1406.283;-81.49
1406.482;-81.77
1406.681;-83.03
1406.881;-82.53
1407.08;-81.9
1407.279;-84.36
1407.478;-81.78
1407.677;-85.03
1407.876;-83.11
1408.075;-80.63
1408.274;-83.43
1408.474;-81.35
1408.673;-83.69
1408.872;-83.6
1409.071;-85.27
1409.27;-88.55
1409.469;-84.91
1409.668;-85.03
1409.867;-82.81
1410.066;-83.11
1410.266;-85.82
1410.465;-81.84
1410.664;-83.11
1410.863;-82.53
1411.062;-81.24
1411.261;-82.46
1411.46;-82.14
1411.659;-80.77
1411.858;-83.43
1412.058;-83.43
1412.257;-83.96
1412.456;-81.56
1412.655;-81.35
1412.854;-82.33
1413.053;-81.56
1413.252;-82.39
1413.451;-83.43
1413.65;-83.44
1413.85;-82.4
1414.049;-84.16
1414.248;-82.89
1414.447;-82.15
1414.646;-84.16
1414.845;-85.98
1415.044;-81.31
1415.243;-81.36
1415.443;-82.4
1415.642;-83.36
1415.841;-82.4
1416.04;-82.97
1416.239;-84.92
1416.438;-84.26
1416.637;-82.54
1416.836;-82.54
1417.035;-81.15
1417.235;-81.57
1417.434;-80.78
1417.633;-80.43
1417.832;-82.34
1418.031;-81.57
1418.23;-83.04
1418.429;-83.44
1418.628;-84.58
1418.827;-85.83
1419.027;-81.11
1419.226;-81.85
1419.425;-83.44
1419.624;-82.15
1419.823;-80.87
1420.022;-82.4
1420.221;-84.58
1420.42;-83.04
1420.62;-81.73
1420.819;-82.54
1421.018;-80.69
1421.217;-82.47
1421.416;-81.62
1421.615;-80.44
1421.814;-80.61
1422.013;-82.55
1422.212;-82.55
1422.412;-81.12
1422.611;-82.41
1422.81;-82.41
1423.009;-85.17
1423.208;-85.17
1423.407;-80.24
1423.606;-82.28
1423.805;-84.38
1424.004;-85.56
1424.204;-82.04
1424.403;-81.07
1424.602;-81.86
1424.801;-82.48
1425.0;-80.7
