Wavelength (nm);Intensity (dBm)
1131.0;1131.0
1200.0;-61.62
1200.199;-61.55
1200.398;-61.48
1200.597;-61.45
1200.797;-61.4
1200.996;-61.32
1201.195;-61.25
1201.394;-61.2
1201.593;-61.18
1201.792;-61.11
1201.991;-61.04
1202.19;-60.97
1202.389;-60.93
1202.589;-60.91
1202.788;-60.84
1202.987;-60.77
1203.186;-60.75
1203.385;-60.71
1203.584;-60.66
1203.783;-60.62
1203.982;-60.61
1204.181;-60.63
1204.381;-60.61
1204.58;-60.61
1204.779;-60.61
1204.978;-60.63
1205.177;-60.67
1205.376;-60.66
1205.575;-60.72
1205.774;-60.76
1205.974;-60.81
1206.173;-60.78
1206.372;-60.78
1206.571;-60.81
1206.77;-60.82
1206.969;-60.77
1207.168;-60.73
1207.367;-60.69
1207.566;-60.67
1207.766;-60.61
1207.965;-60.52
1208.164;-60.48
1208.363;-60.43
1208.562;-60.35
1208.761;-60.24
1208.96;-60.19
1209.159;-60.17
1209.358;-60.11
1209.558;-60.02
1209.757;-59.95
1209.956;-59.91
1210.155;-59.88
1210.354;-59.8
1210.553;-59.74
1210.752;-59.7
1210.951;-59.68
1211.15;-59.62
1211.35;-59.54
1211.549;-59.52
1211.748;-59.53
1211.947;-59.47
1212.146;-59.41
1212.345;-59.39
1212.544;-59.42
1212.743;-59.39
1212.943;-59.35
1213.142;-59.36
1213.341;-59.37
1213.54;-59.37
1213.739;-59.33
1213.938;-59.32
1214.137;-59.35
1214.336;-59.34
1214.535;-59.31
1214.735;-59.28
1214.934;-59.28
1215.133;-59.28
1215.332;-59.21
1215.531;-59.19
1215.73;-59.17
1215.929;-59.14
1216.128;-59.1
1216.327;-59.03
1216.527;-59.01
1216.726;-58.99
1216.925;-58.93
1217.124;-58.87
1217.323;-58.84
1217.522;-58.84
1217.721;-58.79
1217.92;-58.71
1218.12;-58.7
1218.319;-58.69
1218.518;-58.64
1218.717;-58.59
1218.916;-58.56
1219.115;-58.57
1219.314;-58.54
1219.513;-58.5
1219.712;-58.45
1219.912;-58.43
1220.111;-58.43
1220.31;-58.35
1220.509;-58.3
1220.708;-58.28
1220.907;-58.24
1221.106;-58.16
1221.305;-58.09
1221.504;-58.07
1221.704;-58.01
1221.903;-57.93
1222.102;-57.84
1222.301;-57.8
1222.5;-57.75
1222.699;-57.68
1222.898;-57.59
1223.097;-57.56
1223.297;-57.52
1223.496;-57.45
1223.695;-57.4
1223.894;-57.37
1224.093;-57.34
1224.292;-57.29
1224.491;-57.22
1224.69;-57.2
1224.889;-57.14
1225.089;-57.08
1225.288;-56.97
1225.487;-56.9
1225.686;-56.81
1225.885;-56.69
1226.084;-56.56
1226.283;-56.43
1226.482;-56.29
1226.681;-56.14
1226.881;-55.99
1227.08;-55.86
1227.279;-55.7
1227.478;-55.56
1227.677;-55.43
1227.876;-55.33
1228.075;-55.23
1228.274;-55.11
1228.474;-55.03
1228.673;-54.96
1228.872;-54.9
1229.071;-54.83
1229.27;-54.79
1229.469;-54.77
1229.668;-54.74
1229.867;-54.7
1230.066;-54.71
1230.266;-54.72
1230.465;-54.75
1230.664;-54.77
1230.863;-54.82
1231.062;-54.89
1231.261;-54.95
1231.46;-55.02
1231.659;-55.05
1231.858;-55.09
1232.058;-55.11
1232.257;-55.09
1232.456;-55.06
1232.655;-54.97
1232.854;-54.85
1233.053;-54.7
1233.252;-54.51
1233.451;-54.33
1233.65;-54.11
1233.85;-53.88
1234.049;-53.68
1234.248;-53.47
1234.447;-53.28
1234.646;-53.09
1234.845;-52.94
1235.044;-52.8
1235.243;-52.67
1235.443;-52.57
1235.642;-52.48
1235.841;-52.41
1236.04;-52.35
1236.239;-52.29
1236.438;-52.28
1236.637;-52.26
1236.836;-52.24
1237.035;-52.23
1237.235;-52.24
1237.434;-52.25
1237.633;-52.24
1237.832;-52.26
1238.031;-52.26
1238.23;-52.25
1238.429;-52.23
1238.628;-52.2
1238.827;-52.15
1239.027;-52.08
1239.226;-51.98
1239.425;-51.88
1239.624;-51.77
1239.823;-51.65
1240.022;-51.5
1240.221;-51.36
1240.42;-51.25
1240.62;-51.11
1240.819;-50.99
1241.018;-50.86
1241.217;-50.76
1241.416;-50.68
1241.615;-50.59
1241.814;-50.55
1242.013;-50.49
1242.212;-50.43
1242.412;-50.41
1242.611;-50.37
1242.81;-50.35
1243.009;-50.3
1243.208;-50.27
1243.407;-50.25
1243.606;-50.18
1243.805;-50.14
1244.004;-50.08
1244.204;-50.02
1244.403;-49.96
1244.602;-49.88
1244.801;-49.84
1245.0;-49.78
1245.199;-49.72
1245.398;-49.69
1245.597;-49.64
1245.797;-49.61
1245.996;-49.55
1246.195;-49.53
1246.394;-49.5
1246.593;-49.44
1246.792;-49.39
1246.991;-49.29
1247.19;-49.16
1247.389;-49.0
1247.589;-48.78
1247.788;-48.54
1247.987;-48.21
1248.186;-47.87
1248.385;-47.5
1248.584;-47.08
1248.783;-46.66
1248.982;-46.21
1249.181;-45.72
1249.381;-45.35
1249.58;-44.93
1249.779;-44.52
1249.978;-44.12
1250.177;-43.75
1250.376;-43.38
1250.575;-43.04
1250.774;-42.72
1250.974;-42.42
1251.173;-42.15
1251.372;-41.87
1251.571;-41.62
1251.77;-41.38
1251.969;-41.15
1252.168;-40.93
1252.367;-40.71
1252.566;-40.52
1252.766;-40.32
1252.965;-40.13
1253.164;-39.95
1253.363;-39.75
1253.562;-39.58
1253.761;-39.38
1253.96;-39.2
1254.159;-39.03
1254.358;-38.82
1254.558;-38.66
1254.757;-38.47
1254.956;-38.28
1255.155;-38.11
1255.354;-37.92
1255.553;-37.76
1255.752;-37.57
1255.951;-37.39
1256.15;-37.23
1256.35;-37.05
1256.549;-36.9
1256.748;-36.72
1256.947;-36.55
1257.146;-36.39
1257.345;-36.21
1257.544;-36.07
1257.743;-35.85
1257.943;-35.72
1258.142;-35.55
1258.341;-35.37
1258.54;-35.21
1258.739;-35.03
1258.938;-34.86
1259.137;-34.68
1259.336;-34.51
1259.535;-34.34
1259.735;-34.16
1259.934;-34.0
1260.133;-33.83
1260.332;-33.66
1260.531;-33.51
1260.73;-33.34
1260.929;-33.2
1261.128;-33.03
1261.327;-32.88
1261.527;-32.74
1261.726;-32.59
1261.925;-32.46
1262.124;-32.3
1262.323;-32.17
1262.522;-32.03
1262.721;-31.89
1262.92;-31.76
1263.12;-31.6
1263.319;-31.47
1263.518;-31.33
1263.717;-31.19
1263.916;-31.05
1264.115;-30.9
1264.314;-30.76
1264.513;-30.62
1264.712;-30.48
1264.912;-30.35
1265.111;-30.19
1265.31;-30.06
1265.509;-29.93
1265.708;-29.79
1265.907;-29.66
1266.106;-29.53
1266.305;-29.41
1266.504;-29.29
1266.704;-29.16
1266.903;-29.06
1267.102;-28.94
1267.301;-28.84
1267.5;-28.74
1267.699;-28.64
1267.898;-28.56
1268.097;-28.47
1268.297;-28.39
1268.496;-28.32
1268.695;-28.25
1268.894;-28.2
1269.093;-28.14
1269.292;-28.11
1269.491;-28.09
1269.69;-28.08
1269.889;-28.1
1270.089;-28.12
1270.288;-28.19
1270.487;-28.27
1270.686;-28.37
1270.885;-28.51
1271.084;-28.68
1271.283;-28.9
1271.482;-29.14
1271.681;-29.44
1271.881;-29.8
1272.08;-30.2
1272.279;-30.68
1272.478;-31.22
1272.677;-31.84
1272.876;-32.55
1273.075;-33.35
1273.274;-34.28
1273.474;-35.28
1273.673;-36.4
1273.872;-37.55
1274.071;-38.85
1274.27;-39.4
1274.469;-39.55
1274.668;-39.02
1274.867;-37.96
1275.066;-36.72
1275.266;-35.23
1275.465;-34.25
1275.664;-33.17
1275.863;-32.21
1276.062;-31.34
1276.261;-30.57
1276.46;-29.9
1276.659;-29.29
1276.858;-28.77
1277.058;-28.31
1277.257;-27.91
1277.456;-27.58
1277.655;-27.28
1277.854;-27.05
1278.053;-26.85
1278.252;-26.69
1278.451;-26.58
1278.65;-26.49
1278.85;-26.46
1279.049;-26.44
1279.248;-26.45
1279.447;-26.5
1279.646;-26.56
1279.845;-26.66
1280.044;-26.76
1280.243;-26.9
1280.443;-27.05
1280.642;-27.2
1280.841;-27.38
1281.04;-27.56
1281.239;-27.76
1281.438;-27.96
1281.637;-28.16
1281.836;-28.39
1282.035;-28.6
1282.235;-28.84
1282.434;-29.07
1282.633;-29.33
1282.832;-29.6
1283.031;-29.87
1283.23;-30.16
1283.429;-30.46
1283.628;-30.78
1283.827;-31.12
1284.027;-31.47
1284.226;-31.83
1284.425;-32.17
1284.624;-32.5
1284.823;-32.8
1285.022;-33.03
1285.221;-33.18
1285.42;-33.21
1285.62;-33.12
1285.819;-32.9
1286.018;-32.55
1286.217;-32.11
1286.416;-31.57
1286.615;-31.0
1286.814;-30.38
1287.013;-29.75
1287.212;-29.14
1287.412;-28.52
1287.611;-27.94
1287.81;-27.37
1288.009;-26.83
1288.208;-26.33
1288.407;-25.75
1288.606;-25.39
1288.805;-24.95
1289.004;-24.54
1289.204;-24.14
1289.403;-23.76
1289.602;-23.43
1289.801;-23.08
1290.0;-22.77
1290.199;-22.46
1290.398;-22.18
1290.597;-21.92
1290.797;-21.65
1290.996;-21.4
1291.195;-21.17
1291.394;-20.94
1291.593;-20.75
1291.792;-20.55
1291.991;-20.39
1292.19;-20.22
1292.389;-20.08
1292.589;-19.94
1292.788;-19.82
1292.987;-19.74
1293.186;-19.65
1293.385;-19.59
1293.584;-19.53
1293.783;-19.49
1293.982;-19.49
1294.181;-19.49
1294.381;-19.52
1294.58;-19.55
1294.779;-19.6
1294.978;-19.7
1295.177;-19.79
1295.376;-19.92
1295.575;-20.05
1295.774;-20.21
1295.974;-20.4
1296.173;-20.61
1296.372;-20.87
1296.571;-21.12
1296.77;-21.42
1296.969;-21.75
1297.168;-22.11
1297.367;-22.52
1297.566;-22.93
1297.766;-23.42
1297.965;-23.94
1298.164;-24.52
1298.363;-25.16
1298.562;-25.84
1298.761;-26.62
1298.96;-27.46
1299.159;-28.59
1299.358;-29.42
1299.558;-30.5
1299.757;-31.67
1299.956;-32.82
1300.155;-33.84
1300.354;-34.48
1300.553;-34.54
1300.752;-34.04
1300.951;-33.1
1301.15;-32.03
1301.35;-30.9
1301.549;-29.83
1301.748;-28.85
1301.947;-27.95
1302.146;-27.16
1302.345;-26.41
1302.544;-25.66
1302.743;-25.16
1302.943;-24.62
1303.142;-24.15
1303.341;-23.7
1303.54;-23.33
1303.739;-22.96
1303.938;-22.64
1304.137;-22.36
1304.336;-22.11
1304.535;-21.91
1304.735;-21.7
1304.934;-21.55
1305.133;-21.41
1305.332;-21.3
1305.531;-21.23
1305.73;-21.16
1305.929;-21.13
1306.128;-21.12
1306.327;-21.12
1306.527;-21.17
1306.726;-21.21
1306.925;-21.3
1307.124;-21.4
1307.323;-21.52
1307.522;-21.67
1307.721;-21.84
1307.92;-22.04
1308.12;-22.25
1308.319;-22.5
1308.518;-22.78
1308.717;-23.06
1308.916;-23.39
1309.115;-23.74
1309.314;-24.12
1309.513;-24.54
1309.712;-24.96
1309.912;-25.44
1310.111;-25.92
1310.31;-26.45
1310.509;-27.0
1310.708;-27.59
1310.907;-28.2
1311.106;-28.96
1311.305;-29.48
1311.504;-30.11
1311.704;-30.72
1311.903;-31.24
1312.102;-31.68
1312.301;-32.0
1312.5;-32.17
1312.699;-32.18
1312.898;-32.02
1313.097;-31.76
1313.297;-31.39
1313.496;-30.99
1313.695;-30.55
1313.894;-30.09
1314.093;-29.67
1314.292;-29.23
1314.491;-28.84
1314.69;-28.47
1314.889;-28.12
1315.089;-27.82
1315.288;-27.53
1315.487;-27.29
1315.686;-27.06
1315.885;-26.86
1316.084;-26.71
1316.283;-26.56
1316.482;-26.47
1316.681;-26.37
1316.881;-26.31
1317.08;-26.29
1317.279;-26.27
1317.478;-26.29
1317.677;-26.3
1317.876;-26.36
1318.075;-26.41
1318.274;-26.49
1318.474;-26.6
1318.673;-26.72
1318.872;-26.86
1319.071;-27.01
1319.27;-27.17
1319.469;-27.34
1319.668;-27.53
1319.867;-27.73
1320.066;-27.92
1320.266;-28.12
1320.465;-28.32
1320.664;-28.56
1320.863;-28.72
1321.062;-28.89
1321.261;-29.07
1321.46;-29.21
1321.659;-29.34
1321.858;-29.44
1322.058;-29.52
1322.257;-29.59
1322.456;-29.61
1322.655;-29.63
1322.854;-29.62
1323.053;-29.59
1323.252;-29.55
1323.451;-29.48
1323.65;-29.43
1323.85;-29.35
1324.049;-29.28
1324.248;-29.21
1324.447;-29.13
1324.646;-29.07
1324.845;-28.99
1325.044;-28.95
1325.243;-28.9
1325.443;-28.86
1325.642;-28.85
1325.841;-28.83
1326.04;-28.83
1326.239;-28.83
1326.438;-28.85
1326.637;-28.89
1326.836;-28.93
1327.035;-28.99
1327.235;-29.05
1327.434;-29.14
1327.633;-29.23
1327.832;-29.33
1328.031;-29.46
1328.23;-29.58
1328.429;-29.73
1328.628;-29.88
1328.827;-30.05
1329.027;-30.24
1329.226;-30.43
1329.425;-30.65
1329.624;-30.86
1329.823;-31.09
1330.022;-31.36
1330.221;-31.62
1330.42;-31.92
1330.62;-32.21
1330.819;-32.54
1331.018;-32.9
1331.217;-33.27
1331.416;-33.68
1331.615;-34.09
1331.814;-34.54
1332.013;-35.02
1332.212;-35.52
1332.412;-36.06
1332.611;-36.64
1332.81;-37.26
1333.009;-37.9
1333.208;-38.74
1333.407;-39.33
1333.606;-40.12
1333.805;-40.95
1334.004;-41.84
1334.204;-42.8
1334.403;-43.77
1334.602;-44.77
1334.801;-45.75
1335.0;-46.67
1335.199;-47.44
1335.398;-47.96
1335.597;-48.19
1335.797;-48.09
1335.996;-47.79
1336.195;-47.3
1336.394;-46.72
1336.593;-46.15
1336.792;-45.57
1336.991;-45.06
1337.19;-44.58
1337.389;-44.17
1337.589;-43.81
1337.788;-43.5
1337.987;-43.26
1338.186;-43.03
1338.385;-42.86
1338.584;-42.73
1338.783;-42.63
1338.982;-42.59
1339.181;-42.56
1339.381;-42.57
1339.58;-42.59
1339.779;-42.64
1339.978;-42.72
1340.177;-42.8
1340.376;-42.92
1340.575;-43.03
1340.774;-43.15
1340.974;-43.26
1341.173;-43.38
1341.372;-43.51
1341.571;-43.61
1341.77;-43.72
1341.969;-43.81
1342.168;-43.89
1342.367;-43.96
1342.566;-44.02
1342.766;-44.08
1342.965;-44.11
1343.164;-44.15
1343.363;-44.17
1343.562;-44.19
1343.761;-44.22
1343.96;-44.24
1344.159;-44.27
1344.358;-44.29
1344.558;-44.32
1344.757;-44.35
1344.956;-44.37
1345.155;-44.42
1345.354;-44.44
1345.553;-44.49
1345.752;-44.55
1345.951;-44.61
1346.15;-44.69
1346.35;-44.77
1346.549;-44.87
1346.748;-44.95
1346.947;-45.04
1347.146;-45.15
1347.345;-45.24
1347.544;-45.41
1347.743;-45.58
1347.943;-45.74
1348.142;-45.88
1348.341;-46.03
1348.54;-46.16
1348.739;-46.3
1348.938;-46.46
1349.137;-46.62
1349.336;-46.77
1349.535;-46.96
1349.735;-47.13
1349.934;-47.34
1350.133;-47.56
1350.332;-47.84
1350.531;-48.09
1350.73;-48.31
1350.929;-48.55
1351.128;-48.69
1351.327;-48.91
1351.527;-49.14
1351.726;-49.44
1351.925;-49.68
1352.124;-49.91
1352.323;-50.16
1352.522;-50.41
1352.721;-50.64
1352.92;-50.84
1353.12;-51.16
1353.319;-51.33
1353.518;-51.55
1353.717;-51.81
1353.916;-51.96
1354.115;-52.18
1354.314;-52.46
1354.513;-52.71
1354.712;-53.1
1354.912;-53.45
1355.111;-53.72
1355.31;-53.94
1355.509;-54.02
1355.708;-54.36
1355.907;-54.71
1356.106;-54.99
1356.305;-55.17
1356.504;-55.41
1356.704;-55.42
1356.903;-55.68
1357.102;-56.15
1357.301;-56.49
1357.5;-56.8
1357.699;-57.08
1357.898;-57.24
1358.097;-57.4
1358.297;-57.68
1358.496;-57.99
1358.695;-58.21
1358.894;-58.5
1359.093;-58.66
1359.292;-58.75
1359.491;-59.16
1359.69;-59.47
1359.889;-59.68
1360.089;-59.76
1360.288;-59.78
1360.487;-59.73
1360.686;-59.85
1360.885;-60.18
1361.084;-60.39
1361.283;-60.48
1361.482;-60.61
1361.681;-60.75
1361.881;-60.78
1362.08;-60.9
1362.279;-61.28
1362.478;-61.38
1362.677;-61.42
1362.876;-61.2
1363.075;-61.03
1363.274;-60.71
1363.474;-60.69
1363.673;-60.69
1363.872;-60.74
1364.071;-60.84
1364.27;-60.95
1364.469;-61.18
1364.668;-61.62
1364.867;-61.77
1365.066;-61.66
1365.266;-61.74
1365.465;-61.62
1365.664;-61.63
1365.863;-61.6
1366.062;-61.55
1366.261;-61.47
1366.46;-61.5
1366.659;-61.61
1366.858;-61.84
1367.058;-61.91
1367.257;-61.99
1367.456;-62.22
1367.655;-62.37
1367.854;-62.64
1368.053;-62.75
1368.252;-62.7
1368.451;-63.06
1368.65;-63.12
1368.85;-63.25
1369.049;-63.24
1369.248;-63.22
1369.447;-63.19
1369.646;-63.31
1369.845;-63.69
1370.044;-63.94
1370.243;-64.13
1370.443;-64.23
1370.642;-64.3
1370.841;-64.66
1371.04;-65.08
1371.239;-65.39
1371.438;-65.6
1371.637;-65.7
1371.836;-65.81
1372.035;-66.22
1372.235;-66.59
1372.434;-66.91
1372.633;-67.22
1372.832;-67.51
1373.031;-67.76
1373.23;-68.27
1373.429;-68.73
1373.628;-69.34
1373.827;-69.72
1374.027;-70.32
1374.226;-70.92
1374.425;-71.63
1374.624;-72.11
1374.823;-72.69
1375.022;-73.55
1375.221;-74.45
1375.42;-75.21
1375.62;-76.42
1375.819;-77.0
1376.018;-77.91
1376.217;-78.39
1376.416;-79.2
1376.615;-80.51
1376.814;-80.38
1377.013;-81.74
1377.212;-80.68
1377.412;-82.29
1377.611;-79.98
1377.81;-78.97
1378.009;-77.16
1378.208;-76.47
1378.407;-76.89
1378.606;-77.16
1378.805;-77.03
1379.004;-76.64
1379.204;-76.2
1379.403;-75.12
1379.602;-74.75
1379.801;-74.66
1380.0;-74.81
1380.199;-75.07
1380.398;-75.22
1380.597;-75.96
1380.797;-75.76
1380.996;-75.99
1381.195;-75.85
1381.394;-75.31
1381.593;-75.27
1381.792;-75.76
1381.991;-75.34
1382.19;-75.38
1382.389;-76.27
1382.589;-77.52
1382.788;-78.51
1382.987;-77.6
1383.186;-78.73
1383.385;-77.76
1383.584;-78.73
1383.783;-78.22
1383.982;-79.28
1384.181;-79.18
1384.381;-79.62
1384.58;-79.32
1384.779;-81.42
1384.978;-80.52
1385.177;-81.02
1385.376;-84.22
1385.575;-80.65
1385.774;-81.11
1385.974;-81.75
1386.173;-81.93
1386.372;-80.27
1386.571;-83.57
1386.77;-81.93
1386.969;-83.08
1387.168;-81.53
1387.367;-80.56
1387.566;-80.74
1387.766;-81.53
1387.965;-81.21
1388.164;-82.17
1388.363;-80.39
1388.562;-82.23
1388.761;-79.49
1388.96;-82.17
1389.159;-80.07
1389.358;-80.97
1389.558;-81.21
1389.757;-80.39
1389.956;-80.83
1390.155;-80.39
1390.354;-81.32
1390.553;-80.27
1390.752;-82.71
1390.951;-83.57
1391.15;-82.5
1391.35;-86.76
1391.549;-82.94
1391.748;-82.72
1391.947;-84.13
1392.146;-82.24
1392.345;-84.04
1392.544;-82.51
1392.743;-210.0
1392.943;-83.94
1393.142;-97.56
1393.341;-82.86
1393.54;-82.51
1393.739;-83.58
1393.938;-81.03
1394.137;-82.31
1394.336;-85.52
1394.535;-83.94
1394.735;-80.75
1394.934;-81.88
1395.133;-84.13
1395.332;-83.76
1395.531;-82.24
1395.73;-82.51
1395.929;-85.01
1396.128;-83.41
1396.327;-84.34
1396.527;-83.33
1396.726;-81.76
1396.925;-85.38
1397.124;-82.94
1397.323;-83.76
1397.522;-81.43
1397.721;-81.54
1397.92;-81.88
1398.12;-81.94
1398.319;-80.75
1398.518;-82.38
1398.717;-81.09
1398.916;-80.37
1399.115;-80.94
1399.314;-82.52
1399.513;-80.25
1399.712;-83.18
1399.912;-83.1
1400.111;-80.58
1400.31;-82.52
1400.509;-82.45
1400.708;-82.52
1400.907;-81.49
1401.106;-84.35
1401.305;-82.19
1401.504;-83.77
1401.704;-81.89
1401.903;-81.55
1402.102;-82.52
1402.301;-81.77
1402.5;-84.35
1402.699;-83.42
1402.898;-83.95
1403.097;-82.01
1403.297;-84.14
1403.496;-82.01
1403.695;-81.89
1403.894;-82.25
1404.093;-86.43
1404.292;-83.77
1404.491;-83.42
1404.69;-84.14
1404.889;-87.57
1405.089;-85.26
1405.288;-84.56
1405.487;-82.38
1405.686;-82.52
1405.885;-82.87
1406.084;-82.87
1406.283;-80.85
1406.482;-80.76
1406.681;-81.78
1406.881;-82.81
1407.08;-80.22
1407.279;-86.28
1407.478;-81.05
1407.677;-83.19
1407.876;-83.43
1408.075;-83.6
1408.274;-82.39
1408.474;-80.18
1408.673;-84.91
1408.872;-83.27
1409.071;-83.11
1409.27;-81.45
1409.469;-83.35
1409.668;-82.26
1409.867;-81.78
1410.066;-81.45
1410.266;-82.2
1410.465;-85.27
1410.664;-87.8
1410.863;-82.2
1411.062;-81.56
1411.261;-82.53
1411.46;-81.24
1411.659;-84.36
1411.858;-84.36
1412.058;-82.08
1412.257;-81.9
1412.456;-82.96
1412.655;-83.96
1412.854;-83.43
1413.053;-85.54
1413.252;-81.67
1413.451;-82.53
1413.65;-84.37
1413.85;-81.11
1414.049;-81.15
1414.248;-81.97
1414.447;-81.41
1414.646;-81.91
1414.845;-82.34
1415.044;-80.23
1415.243;-80.73
1415.443;-81.36
1415.642;-81.46
1415.841;-83.79
1416.04;-82.27
1416.239;-80.27
1416.438;-80.73
1416.637;-82.54
1416.836;-82.4
1417.035;-83.28
1417.235;-84.16
1417.434;-82.82
1417.633;-82.34
1417.832;-82.89
1418.031;-80.27
1418.23;-80.91
1418.429;-80.35
1418.628;-82.54
1418.827;-80.73
1419.027;-81.46
1419.226;-80.11
1419.425;-84.26
1419.624;-81.46
1419.823;-81.15
1420.022;-82.97
1420.221;-83.2
1420.42;-82.03
1420.62;-81.06
1420.819;-81.06
1421.018;-82.54
1421.217;-83.61
1421.416;-81.2
1421.615;-81.8
1421.814;-80.36
1422.013;-80.61
1422.212;-80.44
1422.412;-81.47
1422.611;-81.42
1422.81;-82.76
1423.009;-80.79
1423.208;-80.16
1423.407;-81.21
1423.606;-80.92
1423.805;-82.55
1424.004;-80.4
1424.204;-80.79
1424.403;-81.86
1424.602;-81.92
1424.801;-83.71
1425.0;-80.79
