Wavelength (nm);Intensity (dBm)
1131.0;1131.0
1200.0;-61.24
1200.199;-61.17
1200.398;-61.12
1200.597;-61.1
1200.797;-61.1
1200.996;-61.06
1201.195;-61.04
1201.394;-61.02
1201.593;-61.01
1201.792;-61.0
1201.991;-60.94
1202.19;-60.93
1202.389;-60.94
1202.589;-60.94
1202.788;-60.92
1202.987;-60.86
1203.186;-60.87
1203.385;-60.84
1203.584;-60.79
1203.783;-60.76
1203.982;-60.75
1204.181;-60.71
1204.381;-60.67
1204.58;-60.62
1204.779;-60.62
1204.978;-60.61
1205.177;-60.56
1205.376;-60.53
1205.575;-60.49
1205.774;-60.5
1205.974;-60.49
1206.173;-60.41
1206.372;-60.4
1206.571;-60.41
1206.77;-60.36
1206.969;-60.28
1207.168;-60.23
1207.367;-60.21
1207.566;-60.17
1207.766;-60.09
1207.965;-60.02
1208.164;-59.97
1208.363;-59.94
1208.562;-59.85
1208.761;-59.76
1208.96;-59.71
1209.159;-59.67
1209.358;-59.62
1209.558;-59.54
1209.757;-59.46
1209.956;-59.43
1210.155;-59.38
1210.354;-59.3
1210.553;-59.24
1210.752;-59.21
1210.951;-59.19
1211.15;-59.1
1211.35;-59.0
1211.549;-59.0
1211.748;-58.98
1211.947;-58.93
1212.146;-58.84
1212.345;-58.86
1212.544;-58.85
1212.743;-58.79
1212.943;-58.75
1213.142;-58.71
1213.341;-58.74
1213.54;-58.7
1213.739;-58.65
1213.938;-58.63
1214.137;-58.63
1214.336;-58.62
1214.535;-58.57
1214.735;-58.53
1214.934;-58.54
1215.133;-58.51
1215.332;-58.45
1215.531;-58.41
1215.73;-58.4
1215.929;-58.37
1216.128;-58.32
1216.327;-58.27
1216.527;-58.26
1216.726;-58.23
1216.925;-58.2
1217.124;-58.13
1217.323;-58.13
1217.522;-58.14
1217.721;-58.1
1217.92;-58.04
1218.12;-58.03
1218.319;-58.07
1218.518;-58.03
1218.717;-58.01
1218.916;-57.99
1219.115;-58.0
1219.314;-58.02
1219.513;-57.98
1219.712;-57.97
1219.912;-57.97
1220.111;-57.95
1220.31;-57.92
1220.509;-57.87
1220.708;-57.88
1220.907;-57.85
1221.106;-57.77
1221.305;-57.73
1221.504;-57.67
1221.704;-57.63
1221.903;-57.53
1222.102;-57.43
1222.301;-57.38
1222.5;-57.29
1222.699;-57.19
1222.898;-57.05
1223.097;-56.95
1223.297;-56.88
1223.496;-56.72
1223.695;-56.6
1223.894;-56.51
1224.093;-56.39
1224.292;-56.27
1224.491;-56.12
1224.69;-56.03
1224.889;-55.9
1225.089;-55.74
1225.288;-55.62
1225.487;-55.5
1225.686;-55.42
1225.885;-55.29
1226.084;-55.16
1226.283;-55.08
1226.482;-54.98
1226.681;-54.89
1226.881;-54.81
1227.08;-54.76
1227.279;-54.73
1227.478;-54.67
1227.677;-54.66
1227.876;-54.65
1228.075;-54.66
1228.274;-54.68
1228.474;-54.69
1228.673;-54.76
1228.872;-54.81
1229.071;-54.83
1229.27;-54.88
1229.469;-54.93
1229.668;-54.98
1229.867;-54.98
1230.066;-54.98
1230.266;-54.99
1230.465;-54.95
1230.664;-54.9
1230.863;-54.83
1231.062;-54.75
1231.261;-54.66
1231.46;-54.52
1231.659;-54.39
1231.858;-54.24
1232.058;-54.08
1232.257;-53.9
1232.456;-53.73
1232.655;-53.57
1232.854;-53.38
1233.053;-53.22
1233.252;-53.07
1233.451;-52.94
1233.65;-52.83
1233.85;-52.71
1234.049;-52.63
1234.248;-52.58
1234.447;-52.53
1234.646;-52.51
1234.845;-52.5
1235.044;-52.51
1235.243;-52.54
1235.443;-52.55
1235.642;-52.61
1235.841;-52.64
1236.04;-52.68
1236.239;-52.69
1236.438;-52.71
1236.637;-52.73
1236.836;-52.69
1237.035;-52.67
1237.235;-52.63
1237.434;-52.56
1237.633;-52.49
1237.832;-52.4
1238.031;-52.32
1238.23;-52.22
1238.429;-52.09
1238.628;-52.01
1238.827;-51.91
1239.027;-51.81
1239.226;-51.69
1239.425;-51.59
1239.624;-51.53
1239.823;-51.41
1240.022;-51.32
1240.221;-51.23
1240.42;-51.14
1240.62;-51.05
1240.819;-50.94
1241.018;-50.83
1241.217;-50.72
1241.416;-50.58
1241.615;-50.46
1241.814;-50.33
1242.013;-50.2
1242.212;-50.05
1242.412;-49.91
1242.611;-49.77
1242.81;-49.61
1243.009;-49.46
1243.208;-49.32
1243.407;-49.18
1243.606;-49.04
1243.805;-48.91
1244.004;-48.8
1244.204;-48.68
1244.403;-48.56
1244.602;-48.46
1244.801;-48.37
1245.0;-48.28
1245.199;-48.17
1245.398;-48.08
1245.597;-47.97
1245.797;-47.83
1245.996;-47.69
1246.195;-47.53
1246.394;-47.35
1246.593;-47.13
1246.792;-46.9
1246.991;-46.66
1247.19;-46.37
1247.389;-46.08
1247.589;-45.73
1247.788;-45.48
1247.987;-45.18
1248.186;-44.87
1248.385;-44.59
1248.584;-44.29
1248.783;-44.02
1248.982;-43.78
1249.181;-43.55
1249.381;-43.35
1249.58;-43.15
1249.779;-42.99
1249.978;-42.85
1250.177;-42.73
1250.376;-42.65
1250.575;-42.57
1250.774;-42.51
1250.974;-42.51
1251.173;-42.49
1251.372;-42.5
1251.571;-42.51
1251.77;-42.54
1251.969;-42.58
1252.168;-42.6
1252.367;-42.63
1252.566;-42.66
1252.766;-42.68
1252.965;-42.71
1253.164;-42.71
1253.363;-42.71
1253.562;-42.68
1253.761;-42.64
1253.96;-42.61
1254.159;-42.54
1254.358;-42.47
1254.558;-42.38
1254.757;-42.28
1254.956;-42.17
1255.155;-42.04
1255.354;-41.93
1255.553;-41.78
1255.752;-41.62
1255.951;-41.46
1256.15;-41.29
1256.35;-41.12
1256.549;-40.92
1256.748;-40.72
1256.947;-40.51
1257.146;-40.28
1257.345;-40.06
1257.544;-39.82
1257.743;-39.57
1257.943;-39.31
1258.142;-39.06
1258.341;-38.81
1258.54;-38.55
1258.739;-38.29
1258.938;-38.02
1259.137;-37.76
1259.336;-37.51
1259.535;-37.26
1259.735;-37.02
1259.934;-36.77
1260.133;-36.54
1260.332;-36.32
1260.531;-36.1
1260.73;-35.86
1260.929;-35.68
1261.128;-35.49
1261.327;-35.3
1261.527;-35.13
1261.726;-34.95
1261.925;-34.77
1262.124;-34.62
1262.323;-34.46
1262.522;-34.31
1262.721;-34.16
1262.92;-34.0
1263.12;-33.86
1263.319;-33.69
1263.518;-33.55
1263.717;-33.42
1263.916;-33.26
1264.115;-33.12
1264.314;-32.96
1264.513;-32.82
1264.712;-32.67
1264.912;-32.52
1265.111;-32.38
1265.31;-32.23
1265.509;-32.1
1265.708;-31.97
1265.907;-31.84
1266.106;-31.74
1266.305;-31.62
1266.504;-31.53
1266.704;-31.44
1266.903;-31.36
1267.102;-31.31
1267.301;-31.25
1267.5;-31.23
1267.699;-31.21
1267.898;-31.2
1268.097;-31.23
1268.297;-31.25
1268.496;-31.31
1268.695;-31.38
1268.894;-31.46
1269.093;-31.58
1269.292;-31.69
1269.491;-31.85
1269.69;-32.02
1269.889;-32.19
1270.089;-32.4
1270.288;-32.6
1270.487;-32.84
1270.686;-33.07
1270.885;-33.3
1271.084;-33.52
1271.283;-33.7
1271.482;-33.84
1271.681;-33.9
1271.881;-33.89
1272.08;-33.79
1272.279;-33.57
1272.478;-33.27
1272.677;-32.87
1272.876;-32.41
1273.075;-31.9
1273.274;-31.37
1273.474;-30.84
1273.673;-30.3
1273.872;-29.8
1274.071;-29.31
1274.27;-28.85
1274.469;-28.44
1274.668;-28.04
1274.867;-27.68
1275.066;-27.36
1275.266;-27.06
1275.465;-26.82
1275.664;-26.58
1275.863;-26.39
1276.062;-26.22
1276.261;-26.06
1276.46;-25.97
1276.659;-25.88
1276.858;-25.82
1277.058;-25.77
1277.257;-25.76
1277.456;-25.76
1277.655;-25.77
1277.854;-25.81
1278.053;-25.83
1278.252;-25.88
1278.451;-25.91
1278.65;-25.94
1278.85;-25.97
1279.049;-25.97
1279.248;-25.97
1279.447;-25.93
1279.646;-25.87
1279.845;-25.79
1280.044;-25.68
1280.243;-25.56
1280.443;-25.39
1280.642;-25.22
1280.841;-25.03
1281.04;-24.82
1281.239;-24.63
1281.438;-24.41
1281.637;-24.2
1281.836;-23.99
1282.035;-23.79
1282.235;-23.6
1282.434;-23.42
1282.633;-23.27
1282.832;-23.11
1283.031;-22.97
1283.23;-22.86
1283.429;-22.74
1283.628;-22.67
1283.827;-22.58
1284.027;-22.52
1284.226;-22.49
1284.425;-22.45
1284.624;-22.45
1284.823;-22.43
1285.022;-22.44
1285.221;-22.45
1285.42;-22.46
1285.62;-22.5
1285.819;-22.51
1286.018;-22.54
1286.217;-22.56
1286.416;-22.57
1286.615;-22.6
1286.814;-22.58
1287.013;-22.56
1287.212;-22.52
1287.412;-22.46
1287.611;-22.4
1287.81;-22.29
1288.009;-22.19
1288.208;-22.05
1288.407;-21.9
1288.606;-21.75
1288.805;-21.57
1289.004;-21.4
1289.204;-21.21
1289.403;-21.02
1289.602;-20.85
1289.801;-20.66
1290.0;-20.5
1290.199;-20.32
1290.398;-20.17
1290.597;-20.03
1290.797;-19.9
1290.996;-19.79
1291.195;-19.67
1291.394;-19.6
1291.593;-19.53
1291.792;-19.49
1291.991;-19.48
1292.19;-19.47
1292.389;-19.51
1292.589;-19.54
1292.788;-19.6
1292.987;-19.71
1293.186;-19.82
1293.385;-19.98
1293.584;-20.14
1293.783;-20.34
1293.982;-20.57
1294.181;-20.82
1294.381;-21.12
1294.58;-21.42
1294.779;-21.78
1294.978;-22.16
1295.177;-22.57
1295.376;-23.02
1295.575;-23.48
1295.774;-23.99
1295.974;-24.5
1296.173;-25.04
1296.372;-25.59
1296.571;-26.11
1296.77;-26.63
1296.969;-27.05
1297.168;-27.39
1297.367;-27.6
1297.566;-27.65
1297.766;-27.57
1297.965;-27.32
1298.164;-26.96
1298.363;-26.5
1298.562;-25.98
1298.761;-25.46
1298.96;-24.9
1299.159;-24.38
1299.358;-23.85
1299.558;-23.35
1299.757;-22.88
1299.956;-22.43
1300.155;-22.02
1300.354;-21.62
1300.553;-21.25
1300.752;-20.92
1300.951;-20.6
1301.15;-20.34
1301.35;-20.08
1301.549;-19.86
1301.748;-19.64
1301.947;-19.45
1302.146;-19.29
1302.345;-19.14
1302.544;-19.03
1302.743;-18.91
1302.943;-18.82
1303.142;-18.76
1303.341;-18.69
1303.54;-18.68
1303.739;-18.65
1303.938;-18.66
1304.137;-18.68
1304.336;-18.71
1304.535;-18.78
1304.735;-18.85
1304.934;-18.95
1305.133;-19.05
1305.332;-19.18
1305.531;-19.34
1305.73;-19.5
1305.929;-19.7
1306.128;-19.91
1306.327;-20.14
1306.527;-20.39
1306.726;-20.65
1306.925;-20.95
1307.124;-21.26
1307.323;-21.6
1307.522;-21.95
1307.721;-22.32
1307.92;-22.71
1308.12;-23.12
1308.319;-23.54
1308.518;-23.96
1308.717;-24.39
1308.916;-24.81
1309.115;-25.2
1309.314;-25.57
1309.513;-25.87
1309.712;-26.12
1309.912;-26.26
1310.111;-26.33
1310.31;-26.31
1310.509;-26.19
1310.708;-26.01
1310.907;-25.73
1311.106;-25.43
1311.305;-25.09
1311.504;-24.73
1311.704;-24.37
1311.903;-24.0
1312.102;-23.66
1312.301;-23.31
1312.5;-23.0
1312.699;-22.7
1312.898;-22.42
1313.097;-22.17
1313.297;-21.93
1313.496;-21.74
1313.695;-21.54
1313.894;-21.37
1314.093;-21.25
1314.292;-21.12
1314.491;-21.03
1314.69;-20.94
1314.889;-20.88
1315.089;-20.83
1315.288;-20.8
1315.487;-20.81
1315.686;-20.81
1315.885;-20.84
1316.084;-20.87
1316.283;-20.92
1316.482;-21.0
1316.681;-21.06
1316.881;-21.17
1317.08;-21.27
1317.279;-21.38
1317.478;-21.51
1317.677;-21.63
1317.876;-21.77
1318.075;-21.89
1318.274;-22.05
1318.474;-22.18
1318.673;-22.34
1318.872;-22.48
1319.071;-22.63
1319.27;-22.79
1319.469;-22.91
1319.668;-23.06
1319.867;-23.18
1320.066;-23.3
1320.266;-23.42
1320.465;-23.53
1320.664;-23.64
1320.863;-23.72
1321.062;-23.81
1321.261;-23.88
1321.46;-23.95
1321.659;-24.02
1321.858;-24.07
1322.058;-24.14
1322.257;-24.18
1322.456;-24.23
1322.655;-24.28
1322.854;-24.32
1323.053;-24.39
1323.252;-24.44
1323.451;-24.5
1323.65;-24.55
1323.85;-24.62
1324.049;-24.7
1324.248;-24.76
1324.447;-24.86
1324.646;-24.93
1324.845;-25.03
1325.044;-25.12
1325.243;-25.22
1325.443;-25.34
1325.642;-25.46
1325.841;-25.58
1326.04;-25.7
1326.239;-25.83
1326.438;-25.96
1326.637;-26.09
1326.836;-26.23
1327.035;-26.37
1327.235;-26.52
1327.434;-26.65
1327.633;-26.81
1327.832;-26.97
1328.031;-27.11
1328.23;-27.29
1328.429;-27.44
1328.628;-27.62
1328.827;-27.78
1329.027;-27.96
1329.226;-28.14
1329.425;-28.32
1329.624;-28.56
1329.823;-28.72
1330.022;-28.95
1330.221;-29.16
1330.42;-29.39
1330.62;-29.64
1330.819;-29.9
1331.018;-30.18
1331.217;-30.47
1331.416;-30.78
1331.615;-31.09
1331.814;-31.43
1332.013;-31.79
1332.212;-32.15
1332.412;-32.55
1332.611;-32.93
1332.81;-33.33
1333.009;-33.74
1333.208;-34.13
1333.407;-34.53
1333.606;-34.9
1333.805;-35.25
1334.004;-35.55
1334.204;-35.81
1334.403;-36.03
1334.602;-36.17
1334.801;-36.28
1335.0;-36.31
1335.199;-36.3
1335.398;-36.25
1335.597;-36.16
1335.797;-36.08
1335.996;-35.97
1336.195;-35.86
1336.394;-35.74
1336.593;-35.64
1336.792;-35.57
1336.991;-35.5
1337.19;-35.48
1337.389;-35.46
1337.589;-35.48
1337.788;-35.53
1337.987;-35.61
1338.186;-35.73
1338.385;-35.85
1338.584;-36.03
1338.783;-36.23
1338.982;-36.46
1339.181;-36.73
1339.381;-37.04
1339.58;-37.37
1339.779;-37.73
1339.978;-38.13
1340.177;-38.67
1340.376;-39.06
1340.575;-39.57
1340.774;-40.1
1340.974;-40.68
1341.173;-41.27
1341.372;-41.92
1341.571;-42.6
1341.77;-43.33
1341.969;-44.1
1342.168;-44.9
1342.367;-45.75
1342.566;-46.62
1342.766;-47.56
1342.965;-48.76
1343.164;-49.61
1343.363;-50.67
1343.562;-51.79
1343.761;-52.95
1343.96;-54.1
1344.159;-55.25
1344.358;-56.32
1344.558;-57.23
1344.757;-57.92
1344.956;-58.29
1345.155;-58.34
1345.354;-58.13
1345.553;-57.73
1345.752;-57.25
1345.951;-56.7
1346.15;-56.16
1346.35;-55.63
1346.549;-55.14
1346.748;-54.66
1346.947;-54.2
1347.146;-53.78
1347.345;-53.37
1347.544;-53.05
1347.743;-52.76
1347.943;-52.45
1348.142;-52.15
1348.341;-51.87
1348.54;-51.58
1348.739;-51.31
1348.938;-51.06
1349.137;-50.83
1349.336;-50.6
1349.535;-50.42
1349.735;-50.22
1349.934;-50.06
1350.133;-49.95
1350.332;-49.9
1350.531;-49.83
1350.73;-49.71
1350.929;-49.6
1351.128;-49.48
1351.327;-49.42
1351.527;-49.4
1351.726;-49.44
1351.925;-49.47
1352.124;-49.47
1352.323;-49.53
1352.522;-49.61
1352.721;-49.66
1352.92;-49.74
1353.12;-49.93
1353.319;-49.99
1353.518;-50.11
1353.717;-50.27
1353.916;-50.36
1354.115;-50.51
1354.314;-50.76
1354.513;-50.97
1354.712;-51.32
1354.912;-51.64
1355.111;-51.87
1355.31;-52.07
1355.509;-52.12
1355.708;-52.45
1355.907;-52.77
1356.106;-53.01
1356.305;-53.16
1356.504;-53.34
1356.704;-53.32
1356.903;-53.51
1357.102;-53.94
1357.301;-54.2
1357.5;-54.41
1357.699;-54.64
1357.898;-54.7
1358.097;-54.79
1358.297;-54.96
1358.496;-55.2
1358.695;-55.32
1358.894;-55.45
1359.093;-55.59
1359.292;-55.61
1359.491;-55.97
1359.69;-56.22
1359.889;-56.38
1360.089;-56.41
1360.288;-56.39
1360.487;-56.35
1360.686;-56.47
1360.885;-56.79
1361.084;-57.04
1361.283;-57.17
1361.482;-57.32
1361.681;-57.51
1361.881;-57.61
1362.08;-57.8
1362.279;-58.25
1362.478;-58.44
1362.677;-58.6
1362.876;-58.48
1363.075;-58.45
1363.274;-58.21
1363.474;-58.3
1363.673;-58.43
1363.872;-58.6
1364.071;-58.86
1364.27;-59.09
1364.469;-59.46
1364.668;-60.01
1364.867;-60.32
1365.066;-60.38
1365.266;-60.67
1365.465;-60.65
1365.664;-60.81
1365.863;-60.97
1366.062;-61.11
1366.261;-61.2
1366.46;-61.4
1366.659;-61.71
1366.858;-62.09
1367.058;-62.36
1367.257;-62.68
1367.456;-63.1
1367.655;-63.44
1367.854;-63.96
1368.053;-64.27
1368.252;-64.43
1368.451;-64.95
1368.65;-65.32
1368.85;-65.7
1369.049;-65.94
1369.248;-66.13
1369.447;-66.27
1369.646;-66.61
1369.845;-67.08
1370.044;-67.52
1370.243;-67.93
1370.443;-68.32
1370.642;-68.54
1370.841;-69.13
1371.04;-69.58
1371.239;-69.85
1371.438;-70.07
1371.637;-70.1
1371.836;-70.3
1372.035;-70.68
1372.235;-70.89
1372.434;-71.0
1372.633;-71.02
1372.832;-71.03
1373.031;-70.95
1373.23;-71.2
1373.429;-71.2
1373.628;-71.22
1373.827;-71.31
1374.027;-71.18
1374.226;-71.18
1374.425;-71.42
1374.624;-71.54
1374.823;-71.54
1375.022;-71.65
1375.221;-71.57
1375.42;-71.61
1375.62;-71.77
1375.819;-71.64
1376.018;-71.85
1376.217;-71.91
1376.416;-71.96
1376.615;-71.99
1376.814;-72.29
1377.013;-72.4
1377.212;-72.57
1377.412;-72.49
1377.611;-72.38
1377.81;-72.75
1378.009;-72.46
1378.208;-72.78
1378.407;-72.89
1378.606;-72.99
1378.805;-73.26
1379.004;-73.53
1379.204;-73.87
1379.403;-73.58
1379.602;-73.31
1379.801;-73.35
1380.0;-73.46
1380.199;-73.74
1380.398;-74.11
1380.597;-74.21
1380.797;-74.96
1380.996;-74.57
1381.195;-74.96
1381.394;-74.67
1381.593;-74.71
1381.792;-74.87
1381.991;-74.61
1382.19;-74.75
1382.389;-75.15
1382.589;-76.0
1382.788;-76.47
1382.987;-76.59
1383.186;-76.43
1383.385;-77.65
1383.584;-77.2
1383.783;-77.43
1383.982;-77.85
1384.181;-78.4
1384.381;-78.24
1384.58;-78.57
1384.779;-80.23
1384.978;-79.88
1385.177;-80.39
1385.376;-81.53
1385.575;-79.42
1385.774;-80.83
1385.974;-83.0
1386.173;-82.36
1386.372;-82.71
1386.571;-82.36
1386.77;-82.43
1386.969;-83.57
1387.168;-84.22
1387.367;-81.47
1387.566;-80.52
1387.766;-81.99
1387.965;-82.93
1388.164;-84.33
1388.363;-83.32
1388.562;-84.76
1388.761;-81.81
1388.96;-80.65
1389.159;-81.42
1389.358;-79.49
1389.558;-80.47
1389.757;-79.91
1389.956;-80.74
1390.155;-80.23
1390.354;-81.21
1390.553;-79.49
1390.752;-80.69
1390.951;-87.77
1391.15;-81.99
1391.35;-83.66
1391.549;-80.7
1391.748;-81.08
1391.947;-80.0
1392.146;-80.44
1392.345;-81.08
1392.544;-82.18
1392.743;-80.57
1392.943;-80.24
1393.142;-80.57
1393.341;-82.79
1393.54;-80.32
1393.739;-81.22
1393.938;-80.0
1394.137;-79.81
1394.336;-82.12
1394.535;-80.75
1394.735;-81.12
1394.934;-82.51
1395.133;-83.58
1395.332;-80.98
1395.531;-82.44
1395.73;-83.01
1395.929;-81.94
1396.128;-80.44
1396.327;-82.51
1396.527;-82.51
1396.726;-82.0
1396.925;-83.67
1397.124;-81.54
1397.323;-82.51
1397.522;-81.82
1397.721;-81.38
1397.92;-83.58
1398.12;-81.7
1398.319;-83.49
1398.518;-81.44
1398.717;-80.49
1398.916;-82.38
1399.115;-83.59
1399.314;-81.44
1399.513;-82.73
1399.712;-84.78
1399.912;-83.34
1400.111;-82.25
1400.31;-80.76
1400.509;-83.26
1400.708;-90.58
1400.907;-210.0
1401.106;-82.38
1401.305;-86.11
1401.504;-83.42
1401.704;-83.77
1401.903;-100.58
1402.102;-87.57
1402.301;-84.78
1402.5;-84.78
1402.699;-81.44
1402.898;-83.68
1403.097;-82.45
1403.297;-83.42
1403.496;-81.89
1403.695;-82.87
1403.894;-82.01
1404.093;-86.43
1404.292;-82.01
1404.491;-84.78
1404.69;-84.56
1404.889;-84.14
1405.089;-87.57
1405.288;-82.19
1405.487;-86.43
1405.686;-80.54
1405.885;-81.77
1406.084;-80.49
1406.283;-81.6
1406.482;-85.02
1406.681;-83.43
1406.881;-82.53
1407.08;-81.78
1407.279;-85.4
1407.478;-83.78
1407.677;-82.81
1407.876;-84.36
1408.075;-82.74
1408.274;-83.27
1408.474;-81.56
1408.673;-82.96
1408.872;-81.56
1409.071;-83.51
1409.27;-82.46
1409.469;-85.82
1409.668;-85.54
1409.867;-84.91
1410.066;-82.53
1410.266;-82.14
1410.465;-80.77
1410.664;-81.19
1410.863;-80.68
1411.062;-85.03
1411.261;-84.91
1411.46;-86.61
1411.659;-81.67
1411.858;-82.96
1412.058;-81.9
1412.257;-85.03
1412.456;-84.57
1412.655;-84.57
1412.854;-81.24
1413.053;-79.94
1413.252;-79.66
1413.451;-82.53
1413.65;-83.79
1413.85;-81.36
1414.049;-83.44
1414.248;-81.46
1414.447;-86.98
1414.646;-88.56
1414.845;-81.06
1415.044;-84.26
1415.243;-83.36
1415.443;-80.73
1415.642;-82.54
1415.841;-82.03
1416.04;-82.34
1416.239;-80.31
1416.438;-81.06
1416.637;-82.21
1416.836;-82.82
1417.035;-82.54
1417.235;-88.84
1417.434;-82.27
1417.633;-81.46
1417.832;-82.47
1418.031;-81.85
1418.23;-82.34
1418.429;-81.25
1418.628;-84.16
1418.827;-83.12
1419.027;-80.78
1419.226;-82.54
1419.425;-84.07
1419.624;-82.03
1419.823;-84.16
1420.022;-81.62
1420.221;-80.56
1420.42;-84.92
1420.62;-84.58
1420.819;-82.54
1421.018;-81.06
1421.217;-83.44
1421.416;-83.28
1421.615;-80.52
1421.814;-80.79
1422.013;-81.37
1422.212;-81.32
1422.412;-80.92
1422.611;-80.57
1422.81;-81.98
1423.009;-84.59
1423.208;-83.62
1423.407;-81.86
1423.606;-81.07
1423.805;-83.29
1424.004;-81.47
1424.204;-83.71
1424.403;-81.86
1424.602;-84.59
1424.801;-82.98
1425.0;-84.59
