Wavelength (nm);Intensity (dBm)
1131.0;1131.0
1200.0;-61.36
1200.199;-61.24
1200.398;-61.21
1200.597;-61.19
1200.797;-61.13
1200.996;-61.07
1201.195;-61.01
1201.394;-60.97
1201.593;-60.91
1201.792;-60.86
1201.991;-60.8
1202.19;-60.75
1202.389;-60.73
1202.589;-60.71
1202.788;-60.64
1202.987;-60.59
1203.186;-60.61
1203.385;-60.58
1203.584;-60.54
1203.783;-60.52
1203.982;-60.51
1204.181;-60.49
1204.381;-60.48
1204.58;-60.48
1204.779;-60.49
1204.978;-60.51
1205.177;-60.53
1205.376;-60.48
1205.575;-60.52
1205.774;-60.56
1205.974;-60.58
1206.173;-60.56
1206.372;-60.56
1206.571;-60.58
1206.77;-60.56
1206.969;-60.5
1207.168;-60.46
1207.367;-60.43
1207.566;-60.41
1207.766;-60.31
1207.965;-60.23
1208.164;-60.18
1208.363;-60.13
1208.562;-60.05
1208.761;-59.94
1208.96;-59.88
1209.159;-59.86
1209.358;-59.74
1209.558;-59.67
1209.757;-59.58
1209.956;-59.55
1210.155;-59.51
1210.354;-59.4
1210.553;-59.32
1210.752;-59.29
1210.951;-59.27
1211.15;-59.21
1211.35;-59.12
1211.549;-59.1
1211.748;-59.09
1211.947;-59.02
1212.146;-58.99
1212.345;-58.96
1212.544;-58.97
1212.743;-58.96
1212.943;-58.9
1213.142;-58.91
1213.341;-58.9
1213.54;-58.91
1213.739;-58.87
1213.938;-58.86
1214.137;-58.88
1214.336;-58.85
1214.535;-58.83
1214.735;-58.8
1214.934;-58.81
1215.133;-58.81
1215.332;-58.74
1215.531;-58.72
1215.73;-58.72
1215.929;-58.7
1216.128;-58.66
1216.327;-58.6
1216.527;-58.59
1216.726;-58.58
1216.925;-58.53
1217.124;-58.49
1217.323;-58.46
1217.522;-58.48
1217.721;-58.43
1217.92;-58.38
1218.12;-58.38
1218.319;-58.39
1218.518;-58.37
1218.717;-58.31
1218.916;-58.29
1219.115;-58.31
1219.314;-58.28
1219.513;-58.26
1219.712;-58.24
1219.912;-58.24
1220.111;-58.24
1220.31;-58.19
1220.509;-58.16
1220.708;-58.15
1220.907;-58.12
1221.106;-58.05
1221.305;-58.0
1221.504;-57.98
1221.704;-57.92
1221.903;-57.84
1222.102;-57.75
1222.301;-57.7
1222.5;-57.64
1222.699;-57.54
1222.898;-57.43
1223.097;-57.37
1223.297;-57.3
1223.496;-57.18
1223.695;-57.07
1223.894;-56.99
1224.093;-56.92
1224.292;-56.78
1224.491;-56.67
1224.69;-56.57
1224.889;-56.46
1225.089;-56.33
1225.288;-56.15
1225.487;-56.03
1225.686;-55.9
1225.885;-55.72
1226.084;-55.58
1226.283;-55.45
1226.482;-55.33
1226.681;-55.16
1226.881;-55.03
1227.08;-54.91
1227.279;-54.8
1227.478;-54.7
1227.677;-54.6
1227.876;-54.55
1228.075;-54.49
1228.274;-54.44
1228.474;-54.41
1228.673;-54.39
1228.872;-54.4
1229.071;-54.39
1229.27;-54.4
1229.469;-54.44
1229.668;-54.48
1229.867;-54.49
1230.066;-54.53
1230.266;-54.57
1230.465;-54.62
1230.664;-54.63
1230.863;-54.68
1231.062;-54.72
1231.261;-54.74
1231.46;-54.74
1231.659;-54.7
1231.858;-54.65
1232.058;-54.59
1232.257;-54.47
1232.456;-54.37
1232.655;-54.21
1232.854;-54.03
1233.053;-53.84
1233.252;-53.64
1233.451;-53.47
1233.65;-53.26
1233.85;-53.06
1234.049;-52.9
1234.248;-52.74
1234.447;-52.61
1234.646;-52.47
1234.845;-52.39
1235.044;-52.3
1235.243;-52.23
1235.443;-52.19
1235.642;-52.16
1235.841;-52.15
1236.04;-52.13
1236.239;-52.12
1236.438;-52.14
1236.637;-52.16
1236.836;-52.17
1237.035;-52.16
1237.235;-52.17
1237.434;-52.17
1237.633;-52.15
1237.832;-52.13
1238.031;-52.09
1238.23;-52.05
1238.429;-51.99
1238.628;-51.91
1238.827;-51.84
1239.027;-51.75
1239.226;-51.63
1239.425;-51.53
1239.624;-51.43
1239.823;-51.31
1240.022;-51.18
1240.221;-51.07
1240.42;-50.96
1240.62;-50.84
1240.819;-50.74
1241.018;-50.62
1241.217;-50.52
1241.416;-50.43
1241.615;-50.32
1241.814;-50.25
1242.013;-50.16
1242.212;-50.07
1242.412;-50.01
1242.611;-49.92
1242.81;-49.85
1243.009;-49.74
1243.208;-49.67
1243.407;-49.6
1243.606;-49.5
1243.805;-49.44
1244.004;-49.35
1244.204;-49.28
1244.403;-49.21
1244.602;-49.14
1244.801;-49.11
1245.0;-49.05
1245.199;-49.0
1245.398;-48.98
1245.597;-48.92
1245.797;-48.87
1245.996;-48.79
1246.195;-48.72
1246.394;-48.61
1246.593;-48.45
1246.792;-48.29
1246.991;-48.06
1247.19;-47.81
1247.389;-47.52
1247.589;-47.19
1247.788;-46.85
1247.987;-46.45
1248.186;-46.07
1248.385;-45.63
1248.584;-45.29
1248.783;-44.93
1248.982;-44.55
1249.181;-44.21
1249.381;-43.87
1249.58;-43.55
1249.779;-43.28
1249.978;-43.0
1250.177;-42.77
1250.376;-42.56
1250.575;-42.35
1250.774;-42.19
1250.974;-42.04
1251.173;-41.92
1251.372;-41.79
1251.571;-41.69
1251.77;-41.61
1251.969;-41.51
1252.168;-41.43
1252.367;-41.34
1252.566;-41.27
1252.766;-41.19
1252.965;-41.09
1253.164;-41.0
1253.363;-40.88
1253.562;-40.77
1253.761;-40.64
1253.96;-40.51
1254.159;-40.37
1254.358;-40.19
1254.558;-40.04
1254.757;-39.87
1254.956;-39.68
1255.155;-39.51
1255.354;-39.31
1255.553;-39.12
1255.752;-38.93
1255.951;-38.72
1256.15;-38.54
1256.35;-38.32
1256.549;-38.12
1256.748;-37.91
1256.947;-37.69
1257.146;-37.48
1257.345;-37.25
1257.544;-37.04
1257.743;-36.81
1257.943;-36.58
1258.142;-36.38
1258.341;-36.14
1258.54;-35.9
1258.739;-35.7
1258.938;-35.5
1259.137;-35.29
1259.336;-35.07
1259.535;-34.9
1259.735;-34.69
1259.934;-34.5
1260.133;-34.33
1260.332;-34.14
1260.531;-34.0
1260.73;-33.82
1260.929;-33.66
1261.128;-33.51
1261.327;-33.35
1261.527;-33.23
1261.726;-33.08
1261.925;-32.94
1262.124;-32.8
1262.323;-32.66
1262.522;-32.55
1262.721;-32.4
1262.92;-32.27
1263.12;-32.13
1263.319;-31.99
1263.518;-31.87
1263.717;-31.72
1263.916;-31.6
1264.115;-31.45
1264.314;-31.3
1264.513;-31.18
1264.712;-31.03
1264.912;-30.9
1265.111;-30.75
1265.31;-30.61
1265.509;-30.49
1265.708;-30.35
1265.907;-30.23
1266.106;-30.1
1266.305;-29.98
1266.504;-29.88
1266.704;-29.77
1266.903;-29.67
1267.102;-29.57
1267.301;-29.48
1267.5;-29.41
1267.699;-29.33
1267.898;-29.27
1268.097;-29.21
1268.297;-29.16
1268.496;-29.13
1268.695;-29.09
1268.894;-29.08
1269.093;-29.05
1269.292;-29.06
1269.491;-29.09
1269.69;-29.12
1269.889;-29.18
1270.089;-29.24
1270.288;-29.33
1270.487;-29.47
1270.686;-29.61
1270.885;-29.8
1271.084;-30.01
1271.283;-30.27
1271.482;-30.57
1271.681;-30.9
1271.881;-31.31
1272.08;-31.74
1272.279;-32.24
1272.478;-32.78
1272.677;-33.36
1272.876;-33.98
1273.075;-34.6
1273.274;-35.19
1273.474;-35.69
1273.673;-36.02
1273.872;-36.14
1274.071;-35.98
1274.27;-35.59
1274.469;-35.01
1274.668;-34.31
1274.867;-33.57
1275.066;-32.81
1275.266;-32.09
1275.465;-31.39
1275.664;-30.75
1275.863;-30.17
1276.062;-29.63
1276.261;-29.16
1276.46;-28.72
1276.659;-28.34
1276.858;-28.02
1277.058;-27.75
1277.257;-27.54
1277.456;-27.34
1277.655;-27.21
1277.854;-27.11
1278.053;-27.04
1278.252;-27.02
1278.451;-27.01
1278.65;-27.05
1278.85;-27.08
1279.049;-27.14
1279.248;-27.22
1279.447;-27.29
1279.646;-27.37
1279.845;-27.41
1280.044;-27.45
1280.243;-27.47
1280.443;-27.44
1280.642;-27.4
1280.841;-27.29
1281.04;-27.17
1281.239;-27.01
1281.438;-26.83
1281.637;-26.64
1281.836;-26.42
1282.035;-26.21
1282.235;-25.95
1282.434;-25.78
1282.633;-25.6
1282.832;-25.41
1283.031;-25.26
1283.23;-25.11
1283.429;-25.01
1283.628;-24.9
1283.827;-24.83
1284.027;-24.8
1284.226;-24.78
1284.425;-24.79
1284.624;-24.81
1284.823;-24.85
1285.022;-24.92
1285.221;-24.98
1285.42;-25.08
1285.62;-25.16
1285.819;-25.24
1286.018;-25.33
1286.217;-25.39
1286.416;-25.44
1286.615;-25.44
1286.814;-25.41
1287.013;-25.34
1287.212;-25.21
1287.412;-25.06
1287.611;-24.85
1287.81;-24.6
1288.009;-24.33
1288.208;-24.02
1288.407;-23.72
1288.606;-23.37
1288.805;-23.04
1289.004;-22.7
1289.204;-22.36
1289.403;-22.05
1289.602;-21.72
1289.801;-21.43
1290.0;-21.15
1290.199;-20.88
1290.398;-20.65
1290.597;-20.41
1290.797;-20.21
1290.996;-20.01
1291.195;-19.84
1291.394;-19.71
1291.593;-19.57
1291.792;-19.48
1291.991;-19.4
1292.19;-19.34
1292.389;-19.32
1292.589;-19.3
1292.788;-19.33
1292.987;-19.35
1293.186;-19.42
1293.385;-19.51
1293.584;-19.6
1293.783;-19.76
1293.982;-19.91
1294.181;-20.11
1294.381;-20.32
1294.58;-20.56
1294.779;-20.85
1294.978;-21.15
1295.177;-21.51
1295.376;-21.88
1295.575;-22.29
1295.774;-22.75
1295.974;-23.25
1296.173;-23.81
1296.372;-24.41
1296.571;-25.08
1296.77;-25.81
1296.969;-26.61
1297.168;-27.52
1297.367;-28.72
1297.566;-29.62
1297.766;-30.81
1297.965;-32.13
1298.164;-33.45
1298.363;-34.63
1298.562;-35.33
1298.761;-35.26
1298.96;-34.48
1299.159;-33.27
1299.358;-31.96
1299.558;-30.68
1299.757;-29.5
1299.956;-28.46
1300.155;-27.49
1300.354;-26.64
1300.553;-25.73
1300.752;-25.17
1300.951;-24.54
1301.15;-23.98
1301.35;-23.48
1301.549;-23.0
1301.748;-22.58
1301.947;-22.18
1302.146;-21.84
1302.345;-21.53
1302.544;-21.24
1302.743;-20.99
1302.943;-20.75
1303.142;-20.56
1303.341;-20.39
1303.54;-20.23
1303.739;-20.11
1303.938;-20.0
1304.137;-19.92
1304.336;-19.87
1304.535;-19.83
1304.735;-19.83
1304.934;-19.83
1305.133;-19.87
1305.332;-19.92
1305.531;-20.0
1305.73;-20.11
1305.929;-20.22
1306.128;-20.38
1306.327;-20.54
1306.527;-20.75
1306.726;-20.98
1306.925;-21.22
1307.124;-21.52
1307.323;-21.82
1307.522;-22.17
1307.721;-22.57
1307.92;-22.98
1308.12;-23.46
1308.319;-23.96
1308.518;-24.52
1308.717;-25.15
1308.916;-25.82
1309.115;-26.58
1309.314;-27.37
1309.513;-28.26
1309.712;-29.41
1309.912;-30.22
1310.111;-31.24
1310.31;-32.2
1310.509;-33.02
1310.708;-33.48
1310.907;-33.5
1311.106;-33.07
1311.305;-32.31
1311.504;-31.42
1311.704;-30.44
1311.903;-29.52
1312.102;-28.64
1312.301;-27.84
1312.5;-27.14
1312.699;-26.47
1312.898;-25.79
1313.097;-25.34
1313.297;-24.89
1313.496;-24.46
1313.695;-24.09
1313.894;-23.75
1314.093;-23.46
1314.292;-23.23
1314.491;-23.0
1314.69;-22.82
1314.889;-22.65
1315.089;-22.52
1315.288;-22.42
1315.487;-22.35
1315.686;-22.3
1315.885;-22.26
1316.084;-22.25
1316.283;-22.27
1316.482;-22.3
1316.681;-22.36
1316.881;-22.42
1317.08;-22.52
1317.279;-22.61
1317.478;-22.73
1317.677;-22.87
1317.876;-23.0
1318.075;-23.15
1318.274;-23.31
1318.474;-23.47
1318.673;-23.66
1318.872;-23.83
1319.071;-24.03
1319.27;-24.2
1319.469;-24.39
1319.668;-24.58
1319.867;-24.76
1320.066;-24.95
1320.266;-25.1
1320.465;-25.27
1320.664;-25.42
1320.863;-25.56
1321.062;-25.7
1321.261;-25.81
1321.46;-25.92
1321.659;-26.01
1321.858;-26.09
1322.058;-26.16
1322.257;-26.21
1322.456;-26.27
1322.655;-26.3
1322.854;-26.33
1323.053;-26.37
1323.252;-26.39
1323.451;-26.42
1323.65;-26.43
1323.85;-26.46
1324.049;-26.47
1324.248;-26.49
1324.447;-26.53
1324.646;-26.54
1324.845;-26.59
1325.044;-26.62
1325.243;-26.66
1325.443;-26.71
1325.642;-26.77
1325.841;-26.84
1326.04;-26.89
1326.239;-26.98
1326.438;-27.06
1326.637;-27.15
1326.836;-27.26
1327.035;-27.35
1327.235;-27.47
1327.434;-27.59
1327.633;-27.71
1327.832;-27.86
1328.031;-28.0
1328.23;-28.17
1328.429;-28.33
1328.628;-28.56
1328.827;-28.7
1329.027;-28.91
1329.226;-29.12
1329.425;-29.34
1329.624;-29.58
1329.823;-29.82
1330.022;-30.1
1330.221;-30.37
1330.42;-30.67
1330.62;-31.0
1330.819;-31.34
1331.018;-31.72
1331.217;-32.11
1331.416;-32.53
1331.615;-32.98
1331.814;-33.46
1332.013;-33.98
1332.212;-34.52
1332.412;-35.11
1332.611;-35.74
1332.81;-36.39
1333.009;-37.1
1333.208;-37.83
1333.407;-38.76
1333.606;-39.39
1333.805;-40.18
1334.004;-40.91
1334.204;-41.57
1334.403;-42.09
1334.602;-42.42
1334.801;-42.55
1335.0;-42.43
1335.199;-42.16
1335.398;-41.76
1335.597;-41.29
1335.797;-40.83
1335.996;-40.35
1336.195;-39.9
1336.394;-39.47
1336.593;-39.1
1336.792;-38.77
1336.991;-38.49
1337.19;-38.28
1337.389;-38.09
1337.589;-37.96
1337.788;-37.87
1337.987;-37.82
1338.186;-37.83
1338.385;-37.87
1338.584;-37.96
1338.783;-38.08
1338.982;-38.25
1339.181;-38.46
1339.381;-38.7
1339.58;-39.01
1339.779;-39.33
1339.978;-39.71
1340.177;-40.12
1340.376;-40.58
1340.575;-41.1
1340.774;-41.63
1340.974;-42.22
1341.173;-42.84
1341.372;-43.51
1341.571;-44.22
1341.77;-44.97
1341.969;-45.78
1342.168;-46.58
1342.367;-47.4
1342.566;-48.22
1342.766;-49.19
1342.965;-49.75
1343.164;-50.36
1343.363;-50.85
1343.562;-51.14
1343.761;-51.29
1343.96;-51.28
1344.159;-51.14
1344.358;-50.93
1344.558;-50.67
1344.757;-50.41
1344.956;-50.11
1345.155;-49.84
1345.354;-49.58
1345.553;-49.34
1345.752;-49.15
1345.951;-48.96
1346.15;-48.81
1346.35;-48.67
1346.549;-48.57
1346.748;-48.47
1346.947;-48.37
1347.146;-48.31
1347.345;-48.22
1347.544;-48.22
1347.743;-48.23
1347.943;-48.23
1348.142;-48.21
1348.341;-48.19
1348.54;-48.16
1348.739;-48.14
1348.938;-48.13
1349.137;-48.13
1349.336;-48.11
1349.535;-48.13
1349.735;-48.13
1349.934;-48.17
1350.133;-48.23
1350.332;-48.34
1350.531;-48.43
1350.73;-48.47
1350.929;-48.51
1351.128;-48.52
1351.327;-48.58
1351.527;-48.67
1351.726;-48.81
1351.925;-48.94
1352.124;-49.03
1352.323;-49.16
1352.522;-49.32
1352.721;-49.44
1352.92;-49.58
1353.12;-49.83
1353.319;-49.94
1353.518;-50.11
1353.717;-50.33
1353.916;-50.47
1354.115;-50.66
1354.314;-50.96
1354.513;-51.21
1354.712;-51.61
1354.912;-51.99
1355.111;-52.27
1355.31;-52.54
1355.509;-52.66
1355.708;-53.05
1355.907;-53.44
1356.106;-53.76
1356.305;-54.01
1356.504;-54.27
1356.704;-54.33
1356.903;-54.62
1357.102;-55.12
1357.301;-55.47
1357.5;-55.78
1357.699;-56.08
1357.898;-56.21
1358.097;-56.36
1358.297;-56.58
1358.496;-56.85
1358.695;-57.01
1358.894;-57.15
1359.093;-57.29
1359.292;-57.28
1359.491;-57.61
1359.69;-57.83
1359.889;-57.93
1360.089;-57.91
1360.288;-57.83
1360.487;-57.73
1360.686;-57.78
1360.885;-58.02
1361.084;-58.19
1361.283;-58.24
1361.482;-58.3
1361.681;-58.5
1361.881;-58.47
1362.08;-58.58
1362.279;-58.95
1362.478;-59.07
1362.677;-59.14
1362.876;-58.96
1363.075;-58.86
1363.274;-58.56
1363.474;-58.6
1363.673;-58.67
1363.872;-58.77
1364.071;-58.97
1364.27;-59.15
1364.469;-59.45
1364.668;-59.97
1364.867;-60.22
1365.066;-60.21
1365.266;-60.41
1365.465;-60.37
1365.664;-60.48
1365.863;-60.56
1366.062;-60.62
1366.261;-60.67
1366.46;-60.79
1366.659;-61.02
1366.858;-61.31
1367.058;-61.52
1367.257;-61.69
1367.456;-62.07
1367.655;-62.32
1367.854;-62.67
1368.053;-62.87
1368.252;-63.01
1368.451;-63.4
1368.65;-63.6
1368.85;-63.81
1369.049;-63.89
1369.248;-63.95
1369.447;-64.0
1369.646;-64.24
1369.845;-64.68
1370.044;-64.97
1370.243;-65.26
1370.443;-65.5
1370.642;-65.67
1370.841;-66.1
1371.04;-66.59
1371.239;-66.88
1371.438;-67.2
1371.637;-67.38
1371.836;-67.59
1372.035;-67.96
1372.235;-68.39
1372.434;-68.88
1372.633;-69.27
1372.832;-69.57
1373.031;-69.91
1373.23;-70.36
1373.429;-70.61
1373.628;-71.56
1373.827;-71.79
1374.027;-72.16
1374.226;-72.75
1374.425;-73.52
1374.624;-73.81
1374.823;-74.41
1375.022;-74.8
1375.221;-74.66
1375.42;-75.64
1375.62;-75.77
1375.819;-75.6
1376.018;-75.75
1376.217;-76.65
1376.416;-75.64
1376.615;-75.64
1376.814;-75.9
1377.013;-76.19
1377.212;-76.03
1377.412;-74.82
1377.611;-74.69
1377.81;-74.46
1378.009;-74.41
1378.208;-74.36
1378.407;-74.2
1378.606;-73.99
1378.805;-74.17
1379.004;-73.44
1379.204;-73.46
1379.403;-73.52
1379.602;-73.03
1379.801;-72.98
1380.0;-73.51
1380.199;-73.32
1380.398;-73.28
1380.597;-73.72
1380.797;-74.14
1380.996;-74.15
1381.195;-74.79
1381.394;-74.24
1381.593;-74.26
1381.792;-74.52
1381.991;-75.08
1382.19;-75.42
1382.389;-75.57
1382.589;-76.64
1382.788;-77.11
1382.987;-77.54
1383.186;-78.14
1383.385;-77.72
1383.584;-78.07
1383.783;-77.56
1383.982;-78.67
1384.181;-78.4
1384.381;-80.73
1384.58;-80.97
1384.779;-80.39
1384.978;-83.08
1385.177;-82.36
1385.376;-83.75
1385.575;-82.85
1385.774;-81.75
1385.974;-83.0
1386.173;-84.03
1386.372;-88.52
1386.571;-83.57
1386.77;-86.09
1386.969;-84.54
1387.168;-82.23
1387.367;-82.78
1387.566;-84.54
1387.766;-84.33
1387.965;-84.33
1388.164;-81.93
1388.363;-80.56
1388.562;-80.31
1388.761;-82.71
1388.96;-79.35
1389.159;-79.88
1389.358;-79.99
1389.558;-80.74
1389.757;-81.11
1389.956;-79.95
1390.155;-82.23
1390.354;-79.45
1390.553;-80.87
1390.752;-80.97
1390.951;-82.05
1391.15;-83.93
1391.35;-80.35
1391.549;-81.88
1391.748;-82.79
1391.947;-84.23
1392.146;-82.31
1392.345;-83.25
1392.544;-81.54
1392.743;-84.04
1392.943;-82.51
1393.142;-83.01
1393.341;-82.0
1393.54;-80.4
1393.739;-84.13
1393.938;-83.49
1394.137;-80.93
1394.336;-80.93
1394.535;-85.01
1394.735;-82.24
1394.934;-82.51
1395.133;-80.32
1395.332;-82.0
1395.531;-83.17
1395.73;-87.15
1395.929;-83.94
1396.128;-85.25
1396.327;-80.75
1396.527;-83.94
1396.726;-82.12
1396.925;-81.33
1397.124;-80.98
1397.323;-83.33
1397.522;-81.08
1397.721;-81.12
1397.92;-82.12
1398.12;-82.44
1398.319;-80.98
1398.518;-83.95
1398.717;-83.86
1398.916;-81.13
1399.115;-83.18
1399.314;-81.71
1399.513;-81.29
1399.712;-80.99
1399.912;-81.77
1400.111;-81.55
1400.31;-84.14
1400.509;-80.76
1400.708;-83.02
1400.907;-82.8
1401.106;-83.18
1401.305;-85.39
1401.504;-84.14
1401.704;-81.83
1401.903;-83.95
1402.102;-85.26
1402.301;-82.45
1402.5;-83.34
1402.699;-82.01
1402.898;-81.49
1403.097;-86.6
1403.297;-83.68
1403.496;-82.25
1403.695;-91.55
1403.894;-82.87
1404.093;-80.94
1404.292;-81.77
1404.491;-84.35
1404.69;-82.8
1404.889;-83.86
1405.089;-85.26
1405.288;-86.6
1405.487;-83.5
1405.686;-82.01
1405.885;-81.55
1406.084;-81.44
1406.283;-82.19
1406.482;-82.01
1406.681;-82.14
1406.881;-85.82
1407.08;-81.05
1407.279;-81.72
1407.478;-88.55
1407.677;-85.4
1407.876;-80.77
1408.075;-84.06
1408.274;-83.03
1408.474;-81.14
1408.673;-81.5
1408.872;-82.26
1409.071;-90.59
1409.27;-82.53
1409.469;-83.43
1409.668;-83.51
1409.867;-84.46
1410.066;-81.56
1410.266;-83.19
1410.465;-81.1
1410.664;-83.35
1410.863;-85.27
1411.062;-81.56
1411.261;-81.05
1411.46;-83.27
1411.659;-83.78
1411.858;-82.88
1412.058;-82.53
1412.257;-83.35
1412.456;-82.53
1412.655;-86.79
1412.854;-83.19
1413.053;-84.06
1413.252;-82.96
1413.451;-82.26
1413.65;-82.4
1413.85;-80.73
1414.049;-82.54
1414.248;-81.97
1414.447;-82.15
1414.646;-84.26
1414.845;-84.58
1415.044;-86.13
1415.243;-81.57
1415.443;-82.82
1415.642;-81.91
1415.841;-83.61
1416.04;-81.85
1416.239;-81.06
1416.438;-80.51
1416.637;-80.96
1416.836;-82.03
1417.035;-82.34
1417.235;-83.12
1417.434;-84.16
1417.633;-83.61
1417.832;-86.45
1418.031;-85.83
1418.23;-83.28
1418.429;-82.47
1418.628;-84.92
1418.827;-82.54
1419.027;-84.37
1419.226;-81.36
1419.425;-82.34
1419.624;-81.46
1419.823;-81.91
1420.022;-83.79
1420.221;-80.15
1420.42;-80.6
1420.62;-81.73
1420.819;-82.97
1421.018;-81.31
1421.217;-81.06
1421.416;-81.57
1421.615;-83.45
1421.814;-81.37
1422.013;-82.41
1422.212;-81.26
1422.412;-82.55
1422.611;-82.28
1422.81;-80.79
1423.009;-81.02
1423.208;-81.63
1423.407;-81.58
1423.606;-81.21
1423.805;-80.79
1424.004;-82.76
1424.204;-80.92
1424.403;-81.12
1424.602;-80.88
1424.801;-80.79
1425.0;-80.44
