Wavelength (nm);Intensity (dBm)
1131.0;1131.0
1200.0;-61.61
1200.199;-61.54
1200.398;-61.48
1200.597;-61.44
1200.797;-61.4
1200.996;-61.35
1201.195;-61.31
1201.394;-61.29
1201.593;-61.27
1201.792;-61.23
1201.991;-61.18
1202.19;-61.17
1202.389;-61.13
1202.589;-61.12
1202.788;-61.07
1202.987;-61.04
1203.186;-61.03
1203.385;-61.0
1203.584;-60.95
1203.783;-60.92
1203.982;-60.94
1204.181;-60.91
1204.381;-60.88
1204.58;-60.87
1204.779;-60.86
1204.978;-60.84
1205.177;-60.86
1205.376;-60.81
1205.575;-60.83
1205.774;-60.85
1205.974;-60.82
1206.173;-60.75
1206.372;-60.73
1206.571;-60.74
1206.77;-60.7
1206.969;-60.62
1207.168;-60.53
1207.367;-60.48
1207.566;-60.46
1207.766;-60.37
1207.965;-60.31
1208.164;-60.21
1208.363;-60.17
1208.562;-60.11
1208.761;-60.01
1208.96;-59.96
1209.159;-59.92
1209.358;-59.86
1209.558;-59.8
1209.757;-59.75
1209.956;-59.74
1210.155;-59.69
1210.354;-59.64
1210.553;-59.61
1210.752;-59.58
1210.951;-59.59
1211.15;-59.52
1211.35;-59.47
1211.549;-59.48
1211.748;-59.46
1211.947;-59.43
1212.146;-59.4
1212.345;-59.4
1212.544;-59.41
1212.743;-59.37
1212.943;-59.35
1213.142;-59.33
1213.341;-59.36
1213.54;-59.35
1213.739;-59.3
1213.938;-59.29
1214.137;-59.3
1214.336;-59.28
1214.535;-59.24
1214.735;-59.19
1214.934;-59.22
1215.133;-59.18
1215.332;-59.13
1215.531;-59.09
1215.73;-59.07
1215.929;-59.05
1216.128;-58.98
1216.327;-58.93
1216.527;-58.9
1216.726;-58.87
1216.925;-58.8
1217.124;-58.72
1217.323;-58.7
1217.522;-58.69
1217.721;-58.64
1217.92;-58.58
1218.12;-58.55
1218.319;-58.54
1218.518;-58.51
1218.717;-58.43
1218.916;-58.4
1219.115;-58.38
1219.314;-58.35
1219.513;-58.29
1219.712;-58.24
1219.912;-58.22
1220.111;-58.17
1220.31;-58.1
1220.509;-58.03
1220.708;-58.02
1220.907;-57.97
1221.106;-57.86
1221.305;-57.79
1221.504;-57.73
1221.704;-57.66
1221.903;-57.56
1222.102;-57.46
1222.301;-57.39
1222.5;-57.32
1222.699;-57.22
1222.898;-57.13
1223.097;-57.05
1223.297;-57.01
1223.496;-56.91
1223.695;-56.82
1223.894;-56.79
1224.093;-56.73
1224.292;-56.66
1224.491;-56.59
1224.69;-56.55
1224.889;-56.52
1225.089;-56.45
1225.288;-56.38
1225.487;-56.34
1225.686;-56.31
1225.885;-56.25
1226.084;-56.15
1226.283;-56.11
1226.482;-56.06
1226.681;-55.99
1226.881;-55.93
1227.08;-55.87
1227.279;-55.84
1227.478;-55.76
1227.677;-55.72
1227.876;-55.71
1228.075;-55.69
1228.274;-55.67
1228.474;-55.64
1228.673;-55.63
1228.872;-55.63
1229.071;-55.59
1229.27;-55.6
1229.469;-55.58
1229.668;-55.58
1229.867;-55.55
1230.066;-55.52
1230.266;-55.51
1230.465;-55.46
1230.664;-55.43
1230.863;-55.41
1231.062;-55.38
1231.261;-55.35
1231.46;-55.29
1231.659;-55.21
1231.858;-55.14
1232.058;-55.03
1232.257;-54.92
1232.456;-54.78
1232.655;-54.63
1232.854;-54.46
1233.053;-54.27
1233.252;-54.1
1233.451;-53.91
1233.65;-53.73
1233.85;-53.56
1234.049;-53.4
1234.248;-53.27
1234.447;-53.14
1234.646;-53.03
1234.845;-52.95
1235.044;-52.89
1235.243;-52.85
1235.443;-52.79
1235.642;-52.78
1235.841;-52.77
1236.04;-52.75
1236.239;-52.75
1236.438;-52.74
1236.637;-52.75
1236.836;-52.72
1237.035;-52.72
1237.235;-52.71
1237.434;-52.67
1237.633;-52.63
1237.832;-52.57
1238.031;-52.52
1238.23;-52.46
1238.429;-52.35
1238.628;-52.27
1238.827;-52.15
1239.027;-52.04
1239.226;-51.92
1239.425;-51.79
1239.624;-51.69
1239.823;-51.55
1240.022;-51.43
1240.221;-51.34
1240.42;-51.23
1240.62;-51.15
1240.819;-51.07
1241.018;-50.99
1241.217;-50.94
1241.416;-50.87
1241.615;-50.82
1241.814;-50.76
1242.013;-50.7
1242.212;-50.63
1242.412;-50.55
1242.611;-50.46
1242.81;-50.34
1243.009;-50.2
1243.208;-50.08
1243.407;-49.93
1243.606;-49.76
1243.805;-49.58
1244.004;-49.42
1244.204;-49.26
1244.403;-49.1
1244.602;-48.96
1244.801;-48.83
1245.0;-48.71
1245.199;-48.61
1245.398;-48.52
1245.597;-48.45
1245.797;-48.37
1245.996;-48.3
1246.195;-48.25
1246.394;-48.18
1246.593;-48.1
1246.792;-48.0
1246.991;-47.88
1247.19;-47.73
1247.389;-47.54
1247.589;-47.33
1247.788;-47.07
1247.987;-46.77
1248.186;-46.45
1248.385;-46.11
1248.584;-45.67
1248.783;-45.35
1248.982;-45.0
1249.181;-44.63
1249.381;-44.26
1249.58;-43.9
1249.779;-43.56
1249.978;-43.25
1250.177;-42.94
1250.376;-42.67
1250.575;-42.4
1250.774;-42.16
1250.974;-41.95
1251.173;-41.74
1251.372;-41.55
1251.571;-41.37
1251.77;-41.2
1251.969;-41.06
1252.168;-40.89
1252.367;-40.75
1252.566;-40.61
1252.766;-40.47
1252.965;-40.34
1253.164;-40.19
1253.363;-40.06
1253.562;-39.92
1253.761;-39.78
1253.96;-39.66
1254.159;-39.52
1254.358;-39.38
1254.558;-39.25
1254.757;-39.12
1254.956;-38.99
1255.155;-38.87
1255.354;-38.75
1255.553;-38.63
1255.752;-38.51
1255.951;-38.4
1256.15;-38.3
1256.35;-38.18
1256.549;-38.06
1256.748;-37.94
1256.947;-37.81
1257.146;-37.67
1257.345;-37.53
1257.544;-37.38
1257.743;-37.22
1257.943;-37.04
1258.142;-36.87
1258.341;-36.69
1258.54;-36.49
1258.739;-36.29
1258.938;-36.07
1259.137;-35.83
1259.336;-35.65
1259.535;-35.44
1259.735;-35.23
1259.934;-35.0
1260.133;-34.8
1260.332;-34.58
1260.531;-34.38
1260.73;-34.19
1260.929;-33.98
1261.128;-33.8
1261.327;-33.62
1261.527;-33.45
1261.726;-33.29
1261.925;-33.13
1262.124;-32.98
1262.323;-32.83
1262.522;-32.7
1262.721;-32.57
1262.92;-32.44
1263.12;-32.33
1263.319;-32.2
1263.518;-32.1
1263.717;-32.0
1263.916;-31.89
1264.115;-31.8
1264.314;-31.7
1264.513;-31.61
1264.712;-31.53
1264.912;-31.44
1265.111;-31.37
1265.31;-31.28
1265.509;-31.21
1265.708;-31.15
1265.907;-31.07
1266.106;-31.02
1266.305;-30.95
1266.504;-30.91
1266.704;-30.87
1266.903;-30.82
1267.102;-30.8
1267.301;-30.76
1267.5;-30.75
1267.699;-30.74
1267.898;-30.73
1268.097;-30.75
1268.297;-30.76
1268.496;-30.8
1268.695;-30.86
1268.894;-30.91
1269.093;-31.0
1269.292;-31.09
1269.491;-31.22
1269.69;-31.37
1269.889;-31.55
1270.089;-31.77
1270.288;-32.0
1270.487;-32.3
1270.686;-32.63
1270.885;-33.01
1271.084;-33.45
1271.283;-33.93
1271.482;-34.49
1271.681;-35.1
1271.881;-35.76
1272.08;-36.47
1272.279;-37.14
1272.478;-37.74
1272.677;-38.23
1272.876;-38.27
1273.075;-37.99
1273.274;-37.37
1273.474;-36.5
1273.673;-35.33
1273.872;-34.46
1274.071;-33.45
1274.27;-32.49
1274.469;-31.58
1274.668;-30.74
1274.867;-29.96
1275.066;-29.25
1275.266;-28.61
1275.465;-28.01
1275.664;-27.47
1275.863;-26.98
1276.062;-26.53
1276.261;-26.15
1276.46;-25.71
1276.659;-25.46
1276.858;-25.18
1277.058;-24.93
1277.257;-24.72
1277.456;-24.54
1277.655;-24.4
1277.854;-24.26
1278.053;-24.15
1278.252;-24.07
1278.451;-24.0
1278.65;-23.96
1278.85;-23.92
1279.049;-23.9
1279.248;-23.88
1279.447;-23.87
1279.646;-23.87
1279.845;-23.86
1280.044;-23.87
1280.243;-23.85
1280.443;-23.84
1280.642;-23.84
1280.841;-23.82
1281.04;-23.82
1281.239;-23.79
1281.438;-23.78
1281.637;-23.77
1281.836;-23.76
1282.035;-23.77
1282.235;-23.77
1282.434;-23.8
1282.633;-23.85
1282.832;-23.9
1283.031;-23.99
1283.23;-24.08
1283.429;-24.2
1283.628;-24.34
1283.827;-24.51
1284.027;-24.71
1284.226;-24.93
1284.425;-25.18
1284.624;-25.46
1284.823;-25.77
1285.022;-26.13
1285.221;-26.5
1285.42;-26.91
1285.62;-27.33
1285.819;-27.8
1286.018;-28.4
1286.217;-28.83
1286.416;-29.37
1286.615;-29.91
1286.814;-30.45
1287.013;-30.93
1287.212;-31.32
1287.412;-31.6
1287.611;-31.69
1287.81;-31.6
1288.009;-31.3
1288.208;-30.83
1288.407;-30.25
1288.606;-29.56
1288.805;-28.83
1289.004;-28.08
1289.204;-27.34
1289.403;-26.63
1289.602;-25.82
1289.801;-25.29
1290.0;-24.67
1290.199;-24.08
1290.398;-23.53
1290.597;-23.02
1290.797;-22.54
1290.996;-22.06
1291.195;-21.65
1291.394;-21.25
1291.593;-20.88
1291.792;-20.56
1291.991;-20.25
1292.19;-19.99
1292.389;-19.74
1292.589;-19.52
1292.788;-19.34
1292.987;-19.18
1293.186;-19.06
1293.385;-18.94
1293.584;-18.86
1293.783;-18.81
1293.982;-18.77
1294.181;-18.78
1294.381;-18.8
1294.58;-18.84
1294.779;-18.91
1294.978;-19.01
1295.177;-19.14
1295.376;-19.28
1295.575;-19.45
1295.774;-19.64
1295.974;-19.86
1296.173;-20.12
1296.372;-20.39
1296.571;-20.7
1296.77;-21.02
1296.969;-21.38
1297.168;-21.76
1297.367;-22.17
1297.566;-22.59
1297.766;-23.04
1297.965;-23.51
1298.164;-23.99
1298.363;-24.47
1298.562;-24.94
1298.761;-25.38
1298.96;-25.8
1299.159;-26.13
1299.358;-26.38
1299.558;-26.53
1299.757;-26.55
1299.956;-26.47
1300.155;-26.27
1300.354;-25.98
1300.553;-25.62
1300.752;-25.21
1300.951;-24.78
1301.15;-24.33
1301.35;-23.88
1301.549;-23.45
1301.748;-23.02
1301.947;-22.62
1302.146;-22.23
1302.345;-21.86
1302.544;-21.52
1302.743;-21.19
1302.943;-20.9
1303.142;-20.61
1303.341;-20.36
1303.54;-20.12
1303.739;-19.9
1303.938;-19.71
1304.137;-19.54
1304.336;-19.39
1304.535;-19.25
1304.735;-19.12
1304.934;-19.02
1305.133;-18.94
1305.332;-18.88
1305.531;-18.83
1305.73;-18.8
1305.929;-18.79
1306.128;-18.8
1306.327;-18.83
1306.527;-18.87
1306.726;-18.93
1306.925;-19.0
1307.124;-19.11
1307.323;-19.23
1307.522;-19.37
1307.721;-19.53
1307.92;-19.7
1308.12;-19.91
1308.319;-20.15
1308.518;-20.4
1308.717;-20.69
1308.916;-20.98
1309.115;-21.32
1309.314;-21.69
1309.513;-22.08
1309.712;-22.51
1309.912;-22.95
1310.111;-23.44
1310.31;-23.95
1310.509;-24.49
1310.708;-25.08
1310.907;-25.66
1311.106;-26.28
1311.305;-26.86
1311.504;-27.44
1311.704;-27.96
1311.903;-28.47
1312.102;-28.71
1312.301;-28.87
1312.5;-28.89
1312.699;-28.72
1312.898;-28.45
1313.097;-28.07
1313.297;-27.63
1313.496;-27.19
1313.695;-26.7
1313.894;-26.16
1314.093;-25.8
1314.292;-25.38
1314.491;-25.01
1314.69;-24.64
1314.889;-24.32
1315.089;-24.01
1315.288;-23.75
1315.487;-23.52
1315.686;-23.31
1315.885;-23.14
1316.084;-22.98
1316.283;-22.86
1316.482;-22.76
1316.681;-22.68
1316.881;-22.63
1317.08;-22.6
1317.279;-22.59
1317.478;-22.59
1317.677;-22.61
1317.876;-22.65
1318.075;-22.7
1318.274;-22.78
1318.474;-22.84
1318.673;-22.95
1318.872;-23.05
1319.071;-23.17
1319.27;-23.31
1319.469;-23.43
1319.668;-23.58
1319.867;-23.72
1320.066;-23.87
1320.266;-24.04
1320.465;-24.18
1320.664;-24.36
1320.863;-24.51
1321.062;-24.67
1321.261;-24.83
1321.46;-24.97
1321.659;-25.13
1321.858;-25.26
1322.058;-25.39
1322.257;-25.51
1322.456;-25.63
1322.655;-25.75
1322.854;-25.85
1323.053;-25.95
1323.252;-26.04
1323.451;-26.12
1323.65;-26.2
1323.85;-26.26
1324.049;-26.34
1324.248;-26.39
1324.447;-26.46
1324.646;-26.51
1324.845;-26.56
1325.044;-26.62
1325.243;-26.67
1325.443;-26.73
1325.642;-26.79
1325.841;-26.84
1326.04;-26.91
1326.239;-26.96
1326.438;-27.03
1326.637;-27.08
1326.836;-27.15
1327.035;-27.23
1327.235;-27.3
1327.434;-27.39
1327.633;-27.47
1327.832;-27.56
1328.031;-27.65
1328.23;-27.74
1328.429;-27.85
1328.628;-27.96
1328.827;-28.08
1329.027;-28.2
1329.226;-28.32
1329.425;-28.49
1329.624;-28.6
1329.823;-28.75
1330.022;-28.91
1330.221;-29.09
1330.42;-29.27
1330.62;-29.46
1330.819;-29.67
1331.018;-29.89
1331.217;-30.15
1331.416;-30.39
1331.615;-30.68
1331.814;-30.96
1332.013;-31.27
1332.212;-31.62
1332.412;-31.97
1332.611;-32.38
1332.81;-32.78
1333.009;-33.23
1333.208;-33.69
1333.407;-34.19
1333.606;-34.73
1333.805;-35.29
1334.004;-35.89
1334.204;-36.51
1334.403;-37.16
1334.602;-37.83
1334.801;-38.62
1335.0;-39.15
1335.199;-39.74
1335.398;-40.28
1335.597;-40.69
1335.797;-40.99
1335.996;-41.13
1336.195;-41.11
1336.394;-40.97
1336.593;-40.72
1336.792;-40.41
1336.991;-40.06
1337.19;-39.71
1337.389;-39.38
1337.589;-39.05
1337.788;-38.77
1337.987;-38.51
1338.186;-38.29
1338.385;-38.11
1338.584;-37.97
1338.783;-37.89
1338.982;-37.82
1339.181;-37.81
1339.381;-37.82
1339.58;-37.88
1339.779;-37.98
1339.978;-38.11
1340.177;-38.28
1340.376;-38.48
1340.575;-38.72
1340.774;-38.98
1340.974;-39.26
1341.173;-39.59
1341.372;-39.93
1341.571;-40.31
1341.77;-40.7
1341.969;-41.12
1342.168;-41.56
1342.367;-42.01
1342.566;-42.49
1342.766;-42.96
1342.965;-43.44
1343.164;-43.92
1343.363;-44.39
1343.562;-44.85
1343.761;-45.28
1343.96;-45.7
1344.159;-46.07
1344.358;-46.42
1344.558;-46.73
1344.757;-46.99
1344.956;-47.21
1345.155;-47.38
1345.354;-47.52
1345.553;-47.64
1345.752;-47.75
1345.951;-47.84
1346.15;-47.9
1346.35;-47.97
1346.549;-48.04
1346.748;-48.08
1346.947;-48.15
1347.146;-48.2
1347.345;-48.26
1347.544;-48.36
1347.743;-48.53
1347.943;-48.61
1348.142;-48.7
1348.341;-48.81
1348.54;-48.88
1348.739;-48.98
1348.938;-49.08
1349.137;-49.19
1349.336;-49.28
1349.535;-49.39
1349.735;-49.51
1349.934;-49.63
1350.133;-49.78
1350.332;-49.97
1350.531;-50.12
1350.73;-50.23
1350.929;-50.3
1351.128;-50.35
1351.327;-50.41
1351.527;-50.5
1351.726;-50.64
1351.925;-50.72
1352.124;-50.79
1352.323;-50.84
1352.522;-50.94
1352.721;-50.96
1352.92;-50.99
1353.12;-51.15
1353.319;-51.14
1353.518;-51.21
1353.717;-51.28
1353.916;-51.29
1354.115;-51.36
1354.314;-51.5
1354.513;-51.64
1354.712;-51.9
1354.912;-52.15
1355.111;-52.29
1355.31;-52.41
1355.509;-52.4
1355.708;-52.66
1355.907;-52.95
1356.106;-53.14
1356.305;-53.26
1356.504;-53.41
1356.704;-53.37
1356.903;-53.58
1357.102;-53.99
1357.301;-54.28
1357.5;-54.51
1357.699;-54.76
1357.898;-54.87
1358.097;-54.98
1358.297;-55.22
1358.496;-55.46
1358.695;-55.64
1358.894;-55.8
1359.093;-55.97
1359.292;-56.03
1359.491;-56.39
1359.69;-56.69
1359.889;-56.86
1360.089;-56.9
1360.288;-56.9
1360.487;-56.85
1360.686;-56.99
1360.885;-57.3
1361.084;-57.56
1361.283;-57.68
1361.482;-57.81
1361.681;-58.0
1361.881;-58.11
1362.08;-58.32
1362.279;-58.94
1362.478;-58.99
1362.677;-59.12
1362.876;-59.02
1363.075;-59.0
1363.274;-58.76
1363.474;-58.88
1363.673;-59.01
1363.872;-59.23
1364.071;-59.49
1364.27;-59.76
1364.469;-60.12
1364.668;-60.69
1364.867;-61.04
1365.066;-61.1
1365.266;-61.39
1365.465;-61.4
1365.664;-61.56
1365.863;-61.71
1366.062;-61.82
1366.261;-61.89
1366.46;-62.05
1366.659;-62.32
1366.858;-62.64
1367.058;-62.87
1367.257;-63.04
1367.456;-63.37
1367.655;-63.64
1367.854;-63.93
1368.053;-64.11
1368.252;-64.13
1368.451;-64.49
1368.65;-64.6
1368.85;-64.72
1369.049;-64.69
1369.248;-64.65
1369.447;-64.55
1369.646;-64.65
1369.845;-64.96
1370.044;-65.16
1370.243;-65.26
1370.443;-65.26
1370.642;-65.26
1370.841;-65.54
1371.04;-65.84
1371.239;-66.07
1371.438;-66.08
1371.637;-66.09
1371.836;-66.11
1372.035;-66.35
1372.235;-66.61
1372.434;-66.85
1372.633;-66.99
1372.832;-67.15
1373.031;-67.33
1373.23;-67.53
1373.429;-67.95
1373.628;-68.3
1373.827;-68.61
1374.027;-68.99
1374.226;-69.31
1374.425;-69.77
1374.624;-70.23
1374.823;-70.53
1375.022;-71.15
1375.221;-71.78
1375.42;-72.21
1375.62;-72.97
1375.819;-73.18
1376.018;-74.02
1376.217;-74.48
1376.416;-74.95
1376.615;-75.5
1376.814;-76.09
1377.013;-76.27
1377.212;-76.89
1377.412;-77.35
1377.611;-76.78
1377.81;-76.68
1378.009;-77.29
1378.208;-77.11
1378.407;-77.2
1378.606;-76.84
1378.805;-76.25
1379.004;-76.19
1379.204;-75.65
1379.403;-75.15
1379.602;-75.23
1379.801;-74.94
1380.0;-74.71
1380.199;-74.89
1380.398;-74.89
1380.597;-75.17
1380.797;-75.54
1380.996;-75.38
1381.195;-75.48
1381.394;-75.22
1381.593;-74.75
1381.792;-74.71
1381.991;-74.56
1382.19;-74.24
1382.389;-75.36
1382.589;-75.71
1382.788;-76.35
1382.987;-76.16
1383.186;-75.82
1383.385;-76.17
1383.584;-76.37
1383.783;-76.47
1383.982;-77.2
1384.181;-77.67
1384.381;-77.11
1384.58;-78.31
1384.779;-78.38
1384.978;-78.28
1385.177;-78.98
1385.376;-80.47
1385.575;-79.77
1385.774;-80.47
1385.974;-81.47
1386.173;-80.39
1386.372;-79.99
1386.571;-81.87
1386.77;-81.53
1386.969;-82.5
1387.168;-82.05
1387.367;-83.57
1387.566;-83.4
1387.766;-81.42
1387.965;-83.57
1388.164;-82.11
1388.363;-85.37
1388.562;-92.78
1388.761;-85.51
1388.96;-82.5
1389.159;-81.81
1389.358;-86.09
1389.558;-81.81
1389.757;-80.65
1389.956;-84.54
1390.155;-80.74
1390.354;-83.08
1390.553;-81.81
1390.752;-86.25
1390.951;-81.87
1391.15;-82.3
1391.35;-81.53
1391.549;-81.88
1391.748;-82.31
1391.947;-87.15
1392.146;-84.04
1392.345;-88.02
1392.544;-210.0
1392.743;-84.13
1392.943;-80.93
1393.142;-84.23
1393.341;-81.65
1393.54;-83.94
1393.739;-81.76
1393.938;-81.94
1394.137;-81.76
1394.336;-81.33
1394.535;-81.03
1394.735;-80.75
1394.934;-81.28
1395.133;-81.76
1395.332;-81.28
1395.531;-80.24
1395.73;-82.86
1395.929;-81.54
1396.128;-80.24
1396.327;-80.7
1396.527;-82.0
1396.726;-80.66
1396.925;-84.89
1397.124;-81.22
1397.323;-83.67
1397.522;-82.79
1397.721;-82.0
1397.92;-82.12
1398.12;-82.24
1398.319;-83.41
1398.518;-81.77
1398.717;-83.1
1398.916;-82.73
1399.115;-82.38
1399.314;-85.14
1399.513;-83.68
1399.712;-84.56
1399.912;-83.1
1400.111;-82.52
1400.31;-85.53
1400.509;-81.83
1400.708;-85.53
1400.907;-82.13
1401.106;-82.52
1401.305;-82.52
1401.504;-82.52
1401.704;-85.53
1401.903;-81.71
1402.102;-84.14
1402.301;-85.02
1402.5;-85.26
1402.699;-83.26
1402.898;-82.52
1403.097;-81.89
1403.297;-84.35
1403.496;-84.05
1403.695;-82.66
1403.894;-81.04
1404.093;-79.97
1404.292;-82.52
1404.491;-86.11
1404.69;-82.25
1404.889;-85.02
1405.089;-84.14
1405.288;-82.8
1405.487;-83.26
1405.686;-81.49
1405.885;-81.89
1406.084;-83.1
1406.283;-82.95
1406.482;-80.85
1406.681;-81.96
1406.881;-81.14
1407.08;-83.03
1407.279;-85.03
1407.478;-82.96
1407.677;-84.36
1407.876;-84.06
1408.075;-84.79
1408.274;-87.17
1408.474;-82.26
1408.673;-82.39
1408.872;-82.96
1409.071;-81.1
1409.27;-81.14
1409.469;-83.03
1409.668;-84.36
1409.867;-82.39
1410.066;-81.35
1410.266;-82.39
1410.465;-81.67
1410.664;-82.33
1410.863;-82.2
1411.062;-86.79
1411.261;-81.5
1411.46;-82.33
1411.659;-84.36
1411.858;-80.59
1412.058;-81.14
1412.257;-81.35
1412.456;-80.02
1412.655;-80.55
1412.854;-82.33
1413.053;-85.03
1413.252;-81.45
1413.451;-81.56
1413.65;-80.87
1413.85;-81.91
1414.049;-81.79
1414.248;-81.15
1414.447;-81.85
1414.646;-81.25
1414.845;-80.03
1415.044;-80.51
1415.243;-82.03
1415.443;-82.03
1415.642;-80.96
1415.841;-83.2
1416.04;-80.96
1416.239;-81.91
1416.438;-82.15
1416.637;-85.83
1416.836;-80.87
1417.035;-81.68
1417.235;-82.03
1417.434;-82.21
1417.633;-80.31
1417.832;-81.06
1418.031;-80.64
1418.23;-80.27
1418.429;-83.04
1418.628;-81.73
1418.827;-79.77
1419.027;-83.36
1419.226;-80.56
1419.425;-79.7
1419.624;-83.36
1419.823;-82.54
1420.022;-82.21
1420.221;-82.47
1420.42;-80.43
1420.62;-81.73
1420.819;-81.31
1421.018;-80.64
1421.217;-80.69
1421.416;-81.41
1421.615;-81.92
1421.814;-86.14
1422.013;-82.98
1422.212;-81.74
1422.412;-82.55
1422.611;-81.58
1422.81;-82.04
1423.009;-81.8
1423.208;-80.08
1423.407;-81.69
1423.606;-85.99
1423.805;-80.61
1424.004;-80.61
1424.204;-82.48
1424.403;-81.12
1424.602;-81.58
1424.801;-81.52
1425.0;-82.55
