Wavelength (nm);Intensity (dBm)
1131.0;1131.0
1200.0;-61.44
1200.199;-61.41
1200.398;-61.35
1200.597;-61.38
1200.797;-61.33
1200.996;-61.32
1201.195;-61.33
1201.394;-61.29
1201.593;-61.3
1201.792;-61.32
1201.991;-61.29
1202.19;-61.29
1202.389;-61.3
1202.589;-61.3
1202.788;-61.27
1202.987;-61.22
1203.186;-61.23
1203.385;-61.21
1203.584;-61.14
1203.783;-61.11
1203.982;-61.1
1204.181;-61.03
1204.381;-60.94
1204.58;-60.9
1204.779;-60.87
1204.978;-60.82
1205.177;-60.75
1205.376;-60.7
1205.575;-60.66
1205.774;-60.63
1205.974;-60.61
1206.173;-60.51
1206.372;-60.47
1206.571;-60.45
1206.77;-60.42
1206.969;-60.32
1207.168;-60.25
1207.367;-60.22
1207.566;-60.16
1207.766;-60.1
1207.965;-60.01
1208.164;-59.96
1208.363;-59.94
1208.562;-59.9
1208.761;-59.83
1208.96;-59.76
1209.159;-59.76
1209.358;-59.7
1209.558;-59.66
1209.757;-59.62
1209.956;-59.6
1210.155;-59.56
1210.354;-59.5
1210.553;-59.48
1210.752;-59.48
1210.951;-59.45
1211.15;-59.4
1211.35;-59.37
1211.549;-59.35
1211.748;-59.36
1211.947;-59.3
1212.146;-59.25
1212.345;-59.24
1212.544;-59.28
1212.743;-59.22
1212.943;-59.14
1213.142;-59.13
1213.341;-59.14
1213.54;-59.1
1213.739;-59.05
1213.938;-59.01
1214.137;-59.0
1214.336;-58.97
1214.535;-58.91
1214.735;-58.87
1214.934;-58.86
1215.133;-58.81
1215.332;-58.74
1215.531;-58.7
1215.73;-58.69
1215.929;-58.63
1216.128;-58.55
1216.327;-58.51
1216.527;-58.47
1216.726;-58.44
1216.925;-58.36
1217.124;-58.27
1217.323;-58.25
1217.522;-58.24
1217.721;-58.16
1217.92;-58.09
1218.12;-58.05
1218.319;-58.03
1218.518;-58.0
1218.717;-57.94
1218.916;-57.89
1219.115;-57.87
1219.314;-57.83
1219.513;-57.77
1219.712;-57.73
1219.912;-57.7
1220.111;-57.66
1220.31;-57.58
1220.509;-57.51
1220.708;-57.49
1220.907;-57.42
1221.106;-57.31
1221.305;-57.23
1221.504;-57.17
1221.704;-57.11
1221.903;-56.99
1222.102;-56.88
1222.301;-56.8
1222.5;-56.71
1222.699;-56.62
1222.898;-56.49
1223.097;-56.41
1223.297;-56.35
1223.496;-56.23
1223.695;-56.15
1223.894;-56.09
1224.093;-56.04
1224.292;-55.96
1224.491;-55.88
1224.69;-55.85
1224.889;-55.81
1225.089;-55.78
1225.288;-55.72
1225.487;-55.7
1225.686;-55.7
1225.885;-55.68
1226.084;-55.66
1226.283;-55.66
1226.482;-55.67
1226.681;-55.67
1226.881;-55.68
1227.08;-55.72
1227.279;-55.75
1227.478;-55.76
1227.677;-55.81
1227.876;-55.86
1228.075;-55.92
1228.274;-55.94
1228.474;-55.97
1228.673;-56.04
1228.872;-56.07
1229.071;-56.06
1229.27;-56.05
1229.469;-56.02
1229.668;-55.99
1229.867;-55.89
1230.066;-55.8
1230.266;-55.69
1230.465;-55.56
1230.664;-55.41
1230.863;-55.26
1231.062;-55.11
1231.261;-54.95
1231.46;-54.77
1231.659;-54.61
1231.858;-54.44
1232.058;-54.29
1232.257;-54.11
1232.456;-53.96
1232.655;-53.84
1232.854;-53.69
1233.053;-53.56
1233.252;-53.44
1233.451;-53.35
1233.65;-53.28
1233.85;-53.19
1234.049;-53.16
1234.248;-53.13
1234.447;-53.11
1234.646;-53.11
1234.845;-53.13
1235.044;-53.16
1235.243;-53.19
1235.443;-53.21
1235.642;-53.26
1235.841;-53.27
1236.04;-53.29
1236.239;-53.26
1236.438;-53.24
1236.637;-53.22
1236.836;-53.13
1237.035;-53.06
1237.235;-52.96
1237.434;-52.84
1237.633;-52.71
1237.832;-52.58
1238.031;-52.46
1238.23;-52.31
1238.429;-52.16
1238.628;-52.04
1238.827;-51.92
1239.027;-51.81
1239.226;-51.67
1239.425;-51.57
1239.624;-51.5
1239.823;-51.4
1240.022;-51.33
1240.221;-51.26
1240.42;-51.21
1240.62;-51.15
1240.819;-51.09
1241.018;-51.04
1241.217;-50.97
1241.416;-50.9
1241.615;-50.81
1241.814;-50.72
1242.013;-50.63
1242.212;-50.48
1242.412;-50.34
1242.611;-50.18
1242.81;-49.99
1243.009;-49.79
1243.208;-49.59
1243.407;-49.38
1243.606;-49.15
1243.805;-48.93
1244.004;-48.74
1244.204;-48.52
1244.403;-48.33
1244.602;-48.14
1244.801;-47.98
1245.0;-47.83
1245.199;-47.67
1245.398;-47.55
1245.597;-47.42
1245.797;-47.29
1245.996;-47.17
1246.195;-47.06
1246.394;-46.94
1246.593;-46.8
1246.792;-46.67
1246.991;-46.54
1247.19;-46.36
1247.389;-46.19
1247.589;-46.0
1247.788;-45.77
1247.987;-45.58
1248.186;-45.36
1248.385;-45.14
1248.584;-44.88
1248.783;-44.65
1248.982;-44.42
1249.181;-44.2
1249.381;-43.98
1249.58;-43.74
1249.779;-43.55
1249.978;-43.35
1250.177;-43.16
1250.376;-43.01
1250.575;-42.84
1250.774;-42.69
1250.974;-42.56
1251.173;-42.44
1251.372;-42.33
1251.571;-42.21
1251.77;-42.1
1251.969;-41.99
1252.168;-41.87
1252.367;-41.78
1252.566;-41.68
1252.766;-41.58
1252.965;-41.48
1253.164;-41.38
1253.363;-41.3
1253.562;-41.2
1253.761;-41.11
1253.96;-41.03
1254.159;-40.95
1254.358;-40.88
1254.558;-40.82
1254.757;-40.77
1254.956;-40.71
1255.155;-40.68
1255.354;-40.66
1255.553;-40.63
1255.752;-40.61
1255.951;-40.59
1256.15;-40.58
1256.35;-40.56
1256.549;-40.54
1256.748;-40.52
1256.947;-40.46
1257.146;-40.4
1257.345;-40.33
1257.544;-40.24
1257.743;-40.12
1257.943;-39.97
1258.142;-39.81
1258.341;-39.62
1258.54;-39.42
1258.739;-39.2
1258.938;-38.95
1259.137;-38.71
1259.336;-38.45
1259.535;-38.18
1259.735;-37.92
1259.934;-37.64
1260.133;-37.38
1260.332;-37.11
1260.531;-36.86
1260.73;-36.62
1260.929;-36.37
1261.128;-36.14
1261.327;-35.88
1261.527;-35.74
1261.726;-35.55
1261.925;-35.37
1262.124;-35.22
1262.323;-35.07
1262.522;-34.95
1262.721;-34.83
1262.92;-34.72
1263.12;-34.64
1263.319;-34.55
1263.518;-34.49
1263.717;-34.43
1263.916;-34.37
1264.115;-34.34
1264.314;-34.29
1264.513;-34.28
1264.712;-34.24
1264.912;-34.22
1265.111;-34.22
1265.31;-34.2
1265.509;-34.2
1265.708;-34.19
1265.907;-34.19
1266.106;-34.2
1266.305;-34.2
1266.504;-34.24
1266.704;-34.26
1266.903;-34.29
1267.102;-34.34
1267.301;-34.4
1267.5;-34.49
1267.699;-34.58
1267.898;-34.68
1268.097;-34.84
1268.297;-34.99
1268.496;-35.21
1268.695;-35.43
1268.894;-35.69
1269.093;-36.01
1269.292;-36.37
1269.491;-36.8
1269.69;-37.26
1269.889;-37.78
1270.089;-38.49
1270.288;-39.0
1270.487;-39.66
1270.686;-40.26
1270.885;-40.76
1271.084;-41.0
1271.283;-40.88
1271.482;-40.38
1271.681;-39.54
1271.881;-38.51
1272.08;-37.37
1272.279;-36.23
1272.478;-34.95
1272.677;-34.08
1272.876;-33.13
1273.075;-32.2
1273.274;-31.37
1273.474;-30.59
1273.673;-29.87
1273.872;-29.22
1274.071;-28.6
1274.27;-28.04
1274.469;-27.53
1274.668;-27.05
1274.867;-26.64
1275.066;-26.23
1275.266;-25.83
1275.465;-25.55
1275.664;-25.27
1275.863;-25.01
1276.062;-24.78
1276.261;-24.59
1276.46;-24.4
1276.659;-24.24
1276.858;-24.1
1277.058;-23.97
1277.257;-23.89
1277.456;-23.8
1277.655;-23.73
1277.854;-23.67
1278.053;-23.61
1278.252;-23.57
1278.451;-23.51
1278.65;-23.47
1278.85;-23.42
1279.049;-23.36
1279.248;-23.31
1279.447;-23.25
1279.646;-23.19
1279.845;-23.1
1280.044;-23.02
1280.243;-22.94
1280.443;-22.84
1280.642;-22.76
1280.841;-22.66
1281.04;-22.57
1281.239;-22.49
1281.438;-22.4
1281.637;-22.33
1281.836;-22.25
1282.035;-22.2
1282.235;-22.15
1282.434;-22.12
1282.633;-22.12
1282.832;-22.1
1283.031;-22.12
1283.23;-22.14
1283.429;-22.18
1283.628;-22.25
1283.827;-22.31
1284.027;-22.41
1284.226;-22.51
1284.425;-22.62
1284.624;-22.76
1284.823;-22.9
1285.022;-23.07
1285.221;-23.23
1285.42;-23.42
1285.62;-23.63
1285.819;-23.84
1286.018;-24.08
1286.217;-24.32
1286.416;-24.58
1286.615;-24.87
1286.814;-25.17
1287.013;-25.49
1287.212;-25.8
1287.412;-26.13
1287.611;-26.45
1287.81;-26.75
1288.009;-27.04
1288.208;-27.26
1288.407;-27.43
1288.606;-27.51
1288.805;-27.49
1289.004;-27.38
1289.204;-27.14
1289.403;-26.82
1289.602;-26.43
1289.801;-25.97
1290.0;-25.5
1290.199;-24.99
1290.398;-24.5
1290.597;-23.99
1290.797;-23.5
1290.996;-23.03
1291.195;-22.58
1291.394;-22.18
1291.593;-21.78
1291.792;-21.43
1291.991;-21.11
1292.19;-20.81
1292.389;-20.57
1292.589;-20.32
1292.788;-20.12
1292.987;-19.94
1293.186;-19.79
1293.385;-19.69
1293.584;-19.58
1293.783;-19.52
1293.982;-19.47
1294.181;-19.45
1294.381;-19.46
1294.58;-19.48
1294.779;-19.54
1294.978;-19.6
1295.177;-19.69
1295.376;-19.8
1295.575;-19.91
1295.774;-20.06
1295.974;-20.19
1296.173;-20.36
1296.372;-20.52
1296.571;-20.69
1296.77;-20.88
1296.969;-21.05
1297.168;-21.24
1297.367;-21.4
1297.566;-21.54
1297.766;-21.69
1297.965;-21.81
1298.164;-21.92
1298.363;-21.99
1298.562;-22.04
1298.761;-22.05
1298.96;-22.04
1299.159;-22.02
1299.358;-21.95
1299.558;-21.86
1299.757;-21.75
1299.956;-21.63
1300.155;-21.49
1300.354;-21.34
1300.553;-21.18
1300.752;-21.0
1300.951;-20.84
1301.15;-20.68
1301.35;-20.5
1301.549;-20.36
1301.748;-20.2
1301.947;-20.05
1302.146;-19.9
1302.345;-19.76
1302.544;-19.64
1302.743;-19.51
1302.943;-19.4
1303.142;-19.29
1303.341;-19.19
1303.54;-19.11
1303.739;-19.02
1303.938;-18.95
1304.137;-18.88
1304.336;-18.83
1304.535;-18.79
1304.735;-18.74
1304.934;-18.72
1305.133;-18.69
1305.332;-18.69
1305.531;-18.68
1305.73;-18.68
1305.929;-18.7
1306.128;-18.72
1306.327;-18.76
1306.527;-18.8
1306.726;-18.86
1306.925;-18.91
1307.124;-18.99
1307.323;-19.07
1307.522;-19.16
1307.721;-19.27
1307.92;-19.38
1308.12;-19.51
1308.319;-19.66
1308.518;-19.81
1308.717;-19.98
1308.916;-20.14
1309.115;-20.33
1309.314;-20.53
1309.513;-20.74
1309.712;-20.96
1309.912;-21.17
1310.111;-21.4
1310.31;-21.62
1310.509;-21.85
1310.708;-22.08
1310.907;-22.29
1311.106;-22.53
1311.305;-22.71
1311.504;-22.9
1311.704;-23.06
1311.903;-23.18
1312.102;-23.29
1312.301;-23.35
1312.5;-23.41
1312.699;-23.41
1312.898;-23.39
1313.097;-23.34
1313.297;-23.26
1313.496;-23.19
1313.695;-23.07
1313.894;-22.95
1314.093;-22.82
1314.292;-22.68
1314.491;-22.55
1314.69;-22.41
1314.889;-22.28
1315.089;-22.15
1315.288;-22.03
1315.487;-21.93
1315.686;-21.82
1315.885;-21.74
1316.084;-21.66
1316.283;-21.6
1316.482;-21.55
1316.681;-21.51
1316.881;-21.49
1317.08;-21.47
1317.279;-21.48
1317.478;-21.49
1317.677;-21.51
1317.876;-21.54
1318.075;-21.57
1318.274;-21.63
1318.474;-21.68
1318.673;-21.77
1318.872;-21.83
1319.071;-21.93
1319.27;-22.02
1319.469;-22.11
1319.668;-22.23
1319.867;-22.33
1320.066;-22.45
1320.266;-22.56
1320.465;-22.68
1320.664;-22.82
1320.863;-22.93
1321.062;-23.07
1321.261;-23.19
1321.46;-23.32
1321.659;-23.44
1321.858;-23.57
1322.058;-23.71
1322.257;-23.83
1322.456;-23.96
1322.655;-24.08
1322.854;-24.21
1323.053;-24.33
1323.252;-24.45
1323.451;-24.58
1323.65;-24.69
1323.85;-24.82
1324.049;-24.93
1324.248;-25.05
1324.447;-25.17
1324.646;-25.28
1324.845;-25.4
1325.044;-25.5
1325.243;-25.62
1325.443;-25.74
1325.642;-25.86
1325.841;-25.98
1326.04;-26.09
1326.239;-26.2
1326.438;-26.3
1326.637;-26.42
1326.836;-26.53
1327.035;-26.64
1327.235;-26.75
1327.434;-26.86
1327.633;-26.97
1327.832;-27.07
1328.031;-27.18
1328.23;-27.29
1328.429;-27.4
1328.628;-27.52
1328.827;-27.63
1329.027;-27.74
1329.226;-27.85
1329.425;-27.98
1329.624;-28.1
1329.823;-28.22
1330.022;-28.36
1330.221;-28.52
1330.42;-28.65
1330.62;-28.79
1330.819;-28.95
1331.018;-29.12
1331.217;-29.3
1331.416;-29.51
1331.615;-29.71
1331.814;-29.93
1332.013;-30.15
1332.212;-30.4
1332.412;-30.67
1332.611;-30.94
1332.81;-31.24
1333.009;-31.54
1333.208;-31.87
1333.407;-32.2
1333.606;-32.55
1333.805;-32.93
1334.004;-33.29
1334.204;-33.67
1334.403;-34.05
1334.602;-34.42
1334.801;-34.79
1335.0;-35.14
1335.199;-35.47
1335.398;-35.77
1335.597;-36.02
1335.797;-36.24
1335.996;-36.41
1336.195;-36.54
1336.394;-36.61
1336.593;-36.66
1336.792;-36.64
1336.991;-36.62
1337.19;-36.58
1337.389;-36.51
1337.589;-36.46
1337.788;-36.39
1337.987;-36.34
1338.186;-36.29
1338.385;-36.27
1338.584;-36.27
1338.783;-36.27
1338.982;-36.32
1339.181;-36.37
1339.381;-36.46
1339.58;-36.58
1339.779;-36.71
1339.978;-36.9
1340.177;-37.08
1340.376;-37.32
1340.575;-37.57
1340.774;-37.85
1340.974;-38.16
1341.173;-38.56
1341.372;-38.86
1341.571;-39.24
1341.77;-39.66
1341.969;-40.09
1342.168;-40.56
1342.367;-41.05
1342.566;-41.56
1342.766;-42.1
1342.965;-42.65
1343.164;-43.23
1343.363;-43.82
1343.562;-44.42
1343.761;-45.05
1343.96;-45.68
1344.159;-46.31
1344.358;-46.94
1344.558;-47.55
1344.757;-48.17
1344.956;-48.86
1345.155;-49.31
1345.354;-49.81
1345.553;-50.29
1345.752;-50.72
1345.951;-51.11
1346.15;-51.47
1346.35;-51.77
1346.549;-52.07
1346.748;-52.29
1346.947;-52.48
1347.146;-52.67
1347.345;-52.81
1347.544;-53.0
1347.743;-53.18
1347.943;-53.33
1348.142;-53.44
1348.341;-53.55
1348.54;-53.63
1348.739;-53.69
1348.938;-53.75
1349.137;-53.78
1349.336;-53.77
1349.535;-53.78
1349.735;-53.74
1349.934;-53.72
1350.133;-53.67
1350.332;-53.66
1350.531;-53.58
1350.73;-53.42
1350.929;-53.25
1351.128;-53.02
1351.327;-52.85
1351.527;-52.67
1351.726;-52.56
1351.925;-52.4
1352.124;-52.22
1352.323;-52.09
1352.522;-51.96
1352.721;-51.82
1352.92;-51.68
1353.12;-51.68
1353.319;-51.54
1353.518;-51.47
1353.717;-51.46
1353.916;-51.35
1354.115;-51.33
1354.314;-51.4
1354.513;-51.46
1354.712;-51.66
1354.912;-51.84
1355.111;-51.93
1355.31;-51.98
1355.509;-51.92
1355.708;-52.15
1355.907;-52.39
1356.106;-52.54
1356.305;-52.6
1356.504;-52.72
1356.704;-52.64
1356.903;-52.79
1357.102;-53.19
1357.301;-53.42
1357.5;-53.63
1357.699;-53.83
1357.898;-53.91
1358.097;-53.99
1358.297;-54.19
1358.496;-54.44
1358.695;-54.58
1358.894;-54.75
1359.093;-54.91
1359.292;-54.96
1359.491;-55.34
1359.69;-55.64
1359.889;-55.84
1360.089;-55.91
1360.288;-55.94
1360.487;-55.93
1360.686;-56.09
1360.885;-56.46
1361.084;-56.76
1361.283;-56.96
1361.482;-57.16
1361.681;-57.41
1361.881;-57.58
1362.08;-57.83
1362.279;-58.32
1362.478;-58.61
1362.677;-58.84
1362.876;-58.82
1363.075;-58.88
1363.274;-58.7
1363.474;-58.89
1363.673;-59.09
1363.872;-59.35
1364.071;-59.71
1364.27;-60.05
1364.469;-60.5
1364.668;-61.15
1364.867;-61.57
1365.066;-61.73
1365.266;-62.1
1365.465;-62.22
1365.664;-62.47
1365.863;-62.72
1366.062;-62.96
1366.261;-63.11
1366.46;-63.42
1366.659;-63.77
1366.858;-64.18
1367.058;-64.53
1367.257;-64.83
1367.456;-65.34
1367.655;-65.69
1367.854;-66.07
1368.053;-66.34
1368.252;-66.49
1368.451;-66.96
1368.65;-67.02
1368.85;-67.21
1369.049;-67.17
1369.248;-67.2
1369.447;-67.07
1369.646;-67.11
1369.845;-67.33
1370.044;-67.49
1370.243;-67.56
1370.443;-67.39
1370.642;-67.3
1370.841;-67.49
1371.04;-67.56
1371.239;-67.62
1371.438;-67.58
1371.637;-67.4
1371.836;-67.3
1372.035;-67.39
1372.235;-67.47
1372.434;-67.48
1372.633;-67.51
1372.832;-67.45
1373.031;-67.58
1373.23;-67.64
1373.429;-67.82
1373.628;-67.89
1373.827;-68.07
1374.027;-68.25
1374.226;-68.35
1374.425;-68.62
1374.624;-68.92
1374.823;-69.25
1375.022;-69.63
1375.221;-69.9
1375.42;-70.16
1375.62;-70.39
1375.819;-70.62
1376.018;-71.28
1376.217;-71.55
1376.416;-72.02
1376.615;-72.12
1376.814;-72.63
1377.013;-73.19
1377.212;-73.93
1377.412;-73.74
1377.611;-74.3
1377.81;-74.84
1378.009;-74.94
1378.208;-74.61
1378.407;-75.13
1378.606;-75.59
1378.805;-75.66
1379.004;-75.75
1379.204;-75.72
1379.403;-75.88
1379.602;-75.29
1379.801;-75.4
1380.0;-75.03
1380.199;-75.03
1380.398;-75.12
1380.597;-75.5
1380.797;-75.48
1380.996;-75.48
1381.195;-75.65
1381.394;-75.17
1381.593;-74.93
1381.792;-74.79
1381.991;-74.59
1382.19;-74.45
1382.389;-75.47
1382.589;-75.55
1382.788;-75.53
1382.987;-76.77
1383.186;-76.28
1383.385;-75.76
1383.584;-76.05
1383.783;-76.43
1383.982;-76.3
1384.181;-76.6
1384.381;-76.89
1384.58;-76.98
1384.779;-76.81
1384.978;-77.77
1385.177;-78.13
1385.376;-78.95
1385.575;-78.86
1385.774;-79.7
1385.974;-78.89
1386.173;-80.03
1386.372;-81.75
1386.571;-81.81
1386.77;-81.69
1386.969;-85.0
1387.168;-80.31
1387.367;-82.17
1387.566;-80.87
1387.766;-82.5
1387.965;-82.78
1388.164;-83.66
1388.363;-86.94
1388.562;-83.16
1388.761;-83.4
1388.96;-82.78
1389.159;-89.1
1389.358;-81.93
1389.558;-83.24
1389.757;-82.93
1389.956;-81.81
1390.155;-83.75
1390.354;-80.74
1390.553;-83.0
1390.752;-83.48
1390.951;-81.42
1391.15;-79.99
1391.35;-82.71
1391.549;-80.66
1391.748;-80.75
1391.947;-83.41
1392.146;-81.82
1392.345;-80.0
1392.544;-81.43
1392.743;-82.72
1392.943;-83.17
1393.142;-80.57
1393.341;-82.12
1393.54;-81.82
1393.739;-80.7
1393.938;-81.28
1394.137;-80.84
1394.336;-80.7
1394.535;-81.7
1394.735;-81.08
1394.934;-82.18
1395.133;-82.24
1395.332;-82.31
1395.531;-81.54
1395.73;-80.66
1395.929;-82.51
1396.128;-80.84
1396.327;-81.94
1396.527;-81.43
1396.726;-81.38
1396.925;-82.51
1397.124;-82.51
1397.323;-81.54
1397.522;-80.75
1397.721;-80.0
1397.92;-81.17
1398.12;-82.79
1398.319;-82.0
1398.518;-82.45
1398.717;-83.95
1398.916;-80.85
1399.115;-83.34
1399.314;-79.31
1399.513;-81.13
1399.712;-81.83
1399.912;-82.13
1400.111;-82.73
1400.31;-82.52
1400.509;-84.56
1400.708;-84.35
1400.907;-84.9
1401.106;-84.35
1401.305;-84.56
1401.504;-81.89
1401.704;-85.81
1401.903;-82.13
1402.102;-82.01
1402.301;-81.95
1402.5;-81.18
1402.699;-80.85
1402.898;-80.99
1403.097;-82.01
1403.297;-83.59
1403.496;-83.1
1403.695;-91.55
1403.894;-81.55
1404.093;-83.1
1404.292;-80.41
1404.491;-82.52
1404.69;-83.95
1404.889;-86.43
1405.089;-84.14
1405.288;-85.02
1405.487;-81.49
1405.686;-82.95
1405.885;-85.14
1406.084;-85.26
1406.283;-82.52
1406.482;-86.78
1406.681;-80.42
1406.881;-81.67
1407.08;-80.38
1407.279;-81.24
1407.478;-82.39
1407.677;-82.08
1407.876;-82.53
1408.075;-84.57
1408.274;-81.67
1408.474;-82.39
1408.673;-81.4
1408.872;-81.3
1409.071;-85.03
1409.27;-82.53
1409.469;-85.03
1409.668;-84.15
1409.867;-83.78
1410.066;-84.15
1410.266;-82.88
1410.465;-83.96
1410.664;-83.03
1410.863;-80.95
1411.062;-82.53
1411.261;-83.43
1411.46;-84.06
1411.659;-81.35
1411.858;-82.53
1412.058;-81.24
1412.257;-81.56
1412.456;-81.0
1412.655;-80.5
1412.854;-80.77
1413.053;-81.35
1413.252;-81.45
1413.451;-81.78
1413.65;-81.91
1413.85;-81.51
1414.049;-82.15
1414.248;-81.57
1414.447;-83.79
1414.646;-79.74
1414.845;-81.06
1415.044;-81.31
1415.243;-82.4
1415.443;-81.68
1415.642;-81.79
1415.841;-82.54
1416.04;-83.28
1416.239;-84.16
1416.438;-82.54
1416.637;-84.37
1416.836;-84.26
1417.035;-82.97
1417.235;-81.41
1417.434;-80.78
1417.633;-81.68
1417.832;-83.36
1418.031;-81.15
1418.23;-82.15
1418.429;-83.61
1418.628;-83.04
1418.827;-82.34
1419.027;-81.85
1419.226;-82.54
1419.425;-86.8
1419.624;-82.54
1419.823;-81.06
1420.022;-82.21
1420.221;-82.09
1420.42;-83.44
1420.62;-84.8
1420.819;-81.68
1421.018;-81.57
1421.217;-81.06
1421.416;-80.31
1421.615;-80.79
1421.814;-80.52
1422.013;-79.82
1422.212;-80.74
1422.412;-81.07
1422.611;-83.62
1422.81;-81.26
1423.009;-82.16
1423.208;-81.8
1423.407;-80.97
1423.606;-81.37
1423.805;-82.76
1424.004;-81.42
1424.204;-82.83
1424.403;-81.58
1424.602;-83.29
1424.801;-83.29
1425.0;-81.92
