Wavelength (nm);Intensity (dBm)
1131.0;1131.0
1200.0;-61.46
1200.199;-61.36
1200.398;-61.29
1200.597;-61.29
1200.797;-61.21
1200.996;-61.16
1201.195;-61.1
1201.394;-61.05
1201.593;-61.06
1201.792;-60.99
1201.991;-60.96
1202.19;-60.94
1202.389;-60.91
1202.589;-60.89
1202.788;-60.84
1202.987;-60.81
1203.186;-60.82
1203.385;-60.81
1203.584;-60.79
1203.783;-60.8
1203.982;-60.77
1204.181;-60.77
1204.381;-60.75
1204.58;-60.74
1204.779;-60.78
1204.978;-60.79
1205.177;-60.79
1205.376;-60.77
1205.575;-60.75
1205.774;-60.78
1205.974;-60.77
1206.173;-60.74
1206.372;-60.69
1206.571;-60.68
1206.77;-60.65
1206.969;-60.57
1207.168;-60.48
1207.367;-60.44
1207.566;-60.38
1207.766;-60.32
1207.965;-60.21
1208.164;-60.14
1208.363;-60.09
1208.562;-60.02
1208.761;-59.93
1208.96;-59.84
1209.159;-59.8
1209.358;-59.75
1209.558;-59.66
1209.757;-59.61
1209.956;-59.58
1210.155;-59.54
1210.354;-59.46
1210.553;-59.4
1210.752;-59.39
1210.951;-59.37
1211.15;-59.29
1211.35;-59.26
1211.549;-59.24
1211.748;-59.24
1211.947;-59.19
1212.146;-59.15
1212.345;-59.15
1212.544;-59.17
1212.743;-59.14
1212.943;-59.1
1213.142;-59.1
1213.341;-59.12
1213.54;-59.1
1213.739;-59.09
1213.938;-59.06
1214.137;-59.07
1214.336;-59.08
1214.535;-59.04
1214.735;-59.03
1214.934;-59.03
1215.133;-59.01
1215.332;-58.97
1215.531;-58.93
1215.73;-58.94
1215.929;-58.91
1216.128;-58.86
1216.327;-58.82
1216.527;-58.79
1216.726;-58.79
1216.925;-58.75
1217.124;-58.68
1217.323;-58.67
1217.522;-58.66
1217.721;-58.62
1217.92;-58.56
1218.12;-58.55
1218.319;-58.54
1218.518;-58.52
1218.717;-58.48
1218.916;-58.45
1219.115;-58.46
1219.314;-58.44
1219.513;-58.38
1219.712;-58.36
1219.912;-58.34
1220.111;-58.31
1220.31;-58.25
1220.509;-58.18
1220.708;-58.18
1220.907;-58.13
1221.106;-58.04
1221.305;-57.96
1221.504;-57.92
1221.704;-57.86
1221.903;-57.75
1222.102;-57.65
1222.301;-57.6
1222.5;-57.52
1222.699;-57.42
1222.898;-57.31
1223.097;-57.22
1223.297;-57.17
1223.496;-57.05
1223.695;-56.96
1223.894;-56.89
1224.093;-56.81
1224.292;-56.72
1224.491;-56.61
1224.69;-56.55
1224.889;-56.46
1225.089;-56.35
1225.288;-56.23
1225.487;-56.14
1225.686;-56.07
1225.885;-55.93
1226.084;-55.79
1226.283;-55.71
1226.482;-55.61
1226.681;-55.51
1226.881;-55.4
1227.08;-55.33
1227.279;-55.26
1227.478;-55.17
1227.677;-55.12
1227.876;-55.09
1228.075;-55.06
1228.274;-55.02
1228.474;-55.0
1228.673;-55.02
1228.872;-55.03
1229.071;-55.04
1229.27;-55.06
1229.469;-55.09
1229.668;-55.13
1229.867;-55.13
1230.066;-55.17
1230.266;-55.19
1230.465;-55.2
1230.664;-55.22
1230.863;-55.23
1231.062;-55.24
1231.261;-55.22
1231.46;-55.17
1231.659;-55.12
1231.858;-55.03
1232.058;-54.93
1232.257;-54.78
1232.456;-54.62
1232.655;-54.44
1232.854;-54.22
1233.053;-54.02
1233.252;-53.79
1233.451;-53.59
1233.65;-53.39
1233.85;-53.18
1234.049;-53.03
1234.248;-52.87
1234.447;-52.73
1234.646;-52.63
1234.845;-52.54
1235.044;-52.49
1235.243;-52.44
1235.443;-52.4
1235.642;-52.4
1235.841;-52.4
1236.04;-52.41
1236.239;-52.41
1236.438;-52.43
1236.637;-52.46
1236.836;-52.45
1237.035;-52.47
1237.235;-52.47
1237.434;-52.46
1237.633;-52.43
1237.832;-52.4
1238.031;-52.37
1238.23;-52.29
1238.429;-52.2
1238.628;-52.12
1238.827;-52.02
1239.027;-51.92
1239.226;-51.78
1239.425;-51.65
1239.624;-51.54
1239.823;-51.4
1240.022;-51.29
1240.221;-51.17
1240.42;-51.07
1240.62;-50.98
1240.819;-50.88
1241.018;-50.81
1241.217;-50.73
1241.416;-50.66
1241.615;-50.58
1241.814;-50.51
1242.013;-50.46
1242.212;-50.36
1242.412;-50.29
1242.611;-50.2
1242.81;-50.09
1243.009;-49.98
1243.208;-49.86
1243.407;-49.75
1243.606;-49.61
1243.805;-49.47
1244.004;-49.37
1244.204;-49.24
1244.403;-49.13
1244.602;-49.02
1244.801;-48.93
1245.0;-48.86
1245.199;-48.78
1245.398;-48.74
1245.597;-48.67
1245.797;-48.61
1245.996;-48.55
1246.195;-48.48
1246.394;-48.4
1246.593;-48.27
1246.792;-48.13
1246.991;-47.96
1247.19;-47.73
1247.389;-47.47
1247.589;-47.17
1247.788;-46.84
1247.987;-46.47
1248.186;-46.09
1248.385;-45.65
1248.584;-45.31
1248.783;-44.92
1248.982;-44.54
1249.181;-44.18
1249.381;-43.83
1249.58;-43.48
1249.779;-43.19
1249.978;-42.89
1250.177;-42.62
1250.376;-42.39
1250.575;-42.16
1250.774;-41.97
1250.974;-41.79
1251.173;-41.63
1251.372;-41.49
1251.571;-41.36
1251.77;-41.25
1251.969;-41.13
1252.168;-41.01
1252.367;-40.9
1252.566;-40.8
1252.766;-40.7
1252.965;-40.59
1253.164;-40.47
1253.363;-40.36
1253.562;-40.23
1253.761;-40.12
1253.96;-39.99
1254.159;-39.85
1254.358;-39.7
1254.558;-39.56
1254.757;-39.43
1254.956;-39.26
1255.155;-39.12
1255.354;-38.97
1255.553;-38.83
1255.752;-38.68
1255.951;-38.51
1256.15;-38.37
1256.35;-38.2
1256.549;-38.04
1256.748;-37.88
1256.947;-37.7
1257.146;-37.52
1257.345;-37.33
1257.544;-37.14
1257.743;-36.95
1257.943;-36.74
1258.142;-36.55
1258.341;-36.33
1258.54;-36.11
1258.739;-35.87
1258.938;-35.68
1259.137;-35.48
1259.336;-35.25
1259.535;-35.06
1259.735;-34.84
1259.934;-34.62
1260.133;-34.44
1260.332;-34.24
1260.531;-34.06
1260.73;-33.87
1260.929;-33.69
1261.128;-33.52
1261.327;-33.35
1261.527;-33.21
1261.726;-33.04
1261.925;-32.89
1262.124;-32.75
1262.323;-32.61
1262.522;-32.49
1262.721;-32.35
1262.92;-32.21
1263.12;-32.09
1263.319;-31.97
1263.518;-31.86
1263.717;-31.73
1263.916;-31.61
1264.115;-31.5
1264.314;-31.38
1264.513;-31.29
1264.712;-31.17
1264.912;-31.05
1265.111;-30.95
1265.31;-30.84
1265.509;-30.76
1265.708;-30.65
1265.907;-30.55
1266.106;-30.46
1266.305;-30.37
1266.504;-30.31
1266.704;-30.22
1266.903;-30.15
1267.102;-30.09
1267.301;-30.03
1267.5;-30.0
1267.699;-29.95
1267.898;-29.92
1268.097;-29.91
1268.297;-29.89
1268.496;-29.92
1268.695;-29.92
1268.894;-29.96
1269.093;-30.01
1269.292;-30.07
1269.491;-30.18
1269.69;-30.28
1269.889;-30.43
1270.089;-30.59
1270.288;-30.79
1270.487;-31.06
1270.686;-31.34
1270.885;-31.69
1271.084;-32.08
1271.283;-32.53
1271.482;-33.08
1271.681;-33.68
1271.881;-34.4
1272.08;-35.2
1272.279;-36.1
1272.478;-37.12
1272.677;-38.4
1272.876;-39.24
1273.075;-40.02
1273.274;-40.3
1273.474;-39.85
1273.673;-38.85
1273.872;-37.57
1274.071;-36.23
1274.27;-34.75
1274.469;-33.77
1274.668;-32.72
1274.867;-31.74
1275.066;-30.88
1275.266;-30.1
1275.465;-29.4
1275.664;-28.79
1275.863;-28.22
1276.062;-27.73
1276.261;-27.28
1276.46;-26.89
1276.659;-26.55
1276.858;-26.26
1277.058;-25.98
1277.257;-25.8
1277.456;-25.64
1277.655;-25.49
1277.854;-25.39
1278.053;-25.32
1278.252;-25.26
1278.451;-25.24
1278.65;-25.22
1278.85;-25.22
1279.049;-25.24
1279.248;-25.26
1279.447;-25.29
1279.646;-25.3
1279.845;-25.32
1280.044;-25.32
1280.243;-25.3
1280.443;-25.3
1280.642;-25.25
1280.841;-25.19
1281.04;-25.12
1281.239;-25.03
1281.438;-24.96
1281.637;-24.85
1281.836;-24.75
1282.035;-24.66
1282.235;-24.57
1282.434;-24.5
1282.633;-24.44
1282.832;-24.39
1283.031;-24.36
1283.23;-24.34
1283.429;-24.36
1283.628;-24.39
1283.827;-24.46
1284.027;-24.53
1284.226;-24.65
1284.425;-24.8
1284.624;-24.95
1284.823;-25.15
1285.022;-25.34
1285.221;-25.57
1285.42;-25.82
1285.62;-26.07
1285.819;-26.34
1286.018;-26.59
1286.217;-26.84
1286.416;-27.05
1286.615;-27.25
1286.814;-27.38
1287.013;-27.43
1287.212;-27.43
1287.412;-27.33
1287.611;-27.15
1287.81;-26.9
1288.009;-26.57
1288.208;-26.21
1288.407;-25.79
1288.606;-25.34
1288.805;-24.9
1289.004;-24.43
1289.204;-23.98
1289.403;-23.52
1289.602;-23.09
1289.801;-22.68
1290.0;-22.27
1290.199;-21.91
1290.398;-21.54
1290.597;-21.22
1290.797;-20.91
1290.996;-20.61
1291.195;-20.35
1291.394;-20.1
1291.593;-19.88
1291.792;-19.69
1291.991;-19.52
1292.19;-19.39
1292.389;-19.26
1292.589;-19.17
1292.788;-19.09
1292.987;-19.04
1293.186;-19.03
1293.385;-19.02
1293.584;-19.05
1293.783;-19.1
1293.982;-19.18
1294.181;-19.29
1294.381;-19.42
1294.58;-19.58
1294.779;-19.75
1294.978;-19.97
1295.177;-20.21
1295.376;-20.48
1295.575;-20.79
1295.774;-21.11
1295.974;-21.49
1296.173;-21.89
1296.372;-22.34
1296.571;-22.83
1296.77;-23.36
1296.969;-23.94
1297.168;-24.57
1297.367;-25.24
1297.566;-25.96
1297.766;-26.73
1297.965;-27.56
1298.164;-28.54
1298.363;-29.21
1298.562;-29.92
1298.761;-30.5
1298.96;-30.82
1299.159;-30.81
1299.358;-30.51
1299.558;-29.93
1299.757;-29.22
1299.956;-28.42
1300.155;-27.61
1300.354;-26.83
1300.553;-26.07
1300.752;-25.26
1300.951;-24.72
1301.15;-24.14
1301.35;-23.58
1301.549;-23.08
1301.748;-22.61
1301.947;-22.17
1302.146;-21.8
1302.345;-21.43
1302.544;-21.12
1302.743;-20.81
1302.943;-20.54
1303.142;-20.32
1303.341;-20.09
1303.54;-19.91
1303.739;-19.72
1303.938;-19.57
1304.137;-19.47
1304.336;-19.35
1304.535;-19.29
1304.735;-19.22
1304.934;-19.17
1305.133;-19.16
1305.332;-19.15
1305.531;-19.19
1305.73;-19.22
1305.929;-19.28
1306.128;-19.37
1306.327;-19.46
1306.527;-19.61
1306.726;-19.74
1306.925;-19.91
1307.124;-20.1
1307.323;-20.31
1307.522;-20.57
1307.721;-20.82
1307.92;-21.12
1308.12;-21.45
1308.319;-21.81
1308.518;-22.21
1308.717;-22.63
1308.916;-23.1
1309.115;-23.6
1309.314;-24.15
1309.513;-24.75
1309.712;-25.37
1309.912;-26.05
1310.111;-26.76
1310.31;-27.5
1310.509;-28.27
1310.708;-29.18
1310.907;-29.74
1311.106;-30.32
1311.305;-30.73
1311.504;-30.88
1311.704;-30.78
1311.903;-30.43
1312.102;-29.91
1312.301;-29.3
1312.5;-28.65
1312.699;-27.99
1312.898;-27.33
1313.097;-26.73
1313.297;-26.07
1313.496;-25.66
1313.695;-25.19
1313.894;-24.76
1314.093;-24.4
1314.292;-24.04
1314.491;-23.75
1314.69;-23.47
1314.889;-23.22
1315.089;-23.02
1315.288;-22.84
1315.487;-22.71
1315.686;-22.57
1315.885;-22.48
1316.084;-22.41
1316.283;-22.36
1316.482;-22.35
1316.681;-22.33
1316.881;-22.35
1317.08;-22.39
1317.279;-22.43
1317.478;-22.52
1317.677;-22.58
1317.876;-22.68
1318.075;-22.78
1318.274;-22.9
1318.474;-23.03
1318.673;-23.17
1318.872;-23.32
1319.071;-23.47
1319.27;-23.63
1319.469;-23.79
1319.668;-23.96
1319.867;-24.14
1320.066;-24.3
1320.266;-24.46
1320.465;-24.63
1320.664;-24.78
1320.863;-24.94
1321.062;-25.08
1321.261;-25.22
1321.46;-25.34
1321.659;-25.46
1321.858;-25.57
1322.058;-25.66
1322.257;-25.76
1322.456;-25.83
1322.655;-25.9
1322.854;-25.97
1323.053;-26.02
1323.252;-26.09
1323.451;-26.12
1323.65;-26.17
1323.85;-26.2
1324.049;-26.24
1324.248;-26.29
1324.447;-26.31
1324.646;-26.36
1324.845;-26.39
1325.044;-26.43
1325.243;-26.48
1325.443;-26.52
1325.642;-26.6
1325.841;-26.65
1326.04;-26.71
1326.239;-26.78
1326.438;-26.85
1326.637;-26.94
1326.836;-27.01
1327.035;-27.11
1327.235;-27.2
1327.434;-27.3
1327.633;-27.42
1327.832;-27.52
1328.031;-27.66
1328.23;-27.78
1328.429;-27.92
1328.628;-28.07
1328.827;-28.21
1329.027;-28.4
1329.226;-28.6
1329.425;-28.76
1329.624;-28.94
1329.823;-29.15
1330.022;-29.36
1330.221;-29.59
1330.42;-29.84
1330.62;-30.1
1330.819;-30.39
1331.018;-30.68
1331.217;-31.0
1331.416;-31.35
1331.615;-31.7
1331.814;-32.1
1332.013;-32.5
1332.212;-32.95
1332.412;-33.42
1332.611;-33.93
1332.81;-34.47
1333.009;-35.03
1333.208;-35.63
1333.407;-36.26
1333.606;-36.93
1333.805;-37.63
1334.004;-38.34
1334.204;-39.22
1334.403;-39.78
1334.602;-40.44
1334.801;-41.0
1335.0;-41.46
1335.199;-41.73
1335.398;-41.82
1335.597;-41.75
1335.797;-41.53
1335.996;-41.23
1336.195;-40.84
1336.394;-40.42
1336.593;-40.02
1336.792;-39.63
1336.991;-39.28
1337.19;-38.96
1337.389;-38.69
1337.589;-38.45
1337.788;-38.25
1337.987;-38.12
1338.186;-38.01
1338.385;-37.96
1338.584;-37.93
1338.783;-37.95
1338.982;-38.01
1339.181;-38.11
1339.381;-38.26
1339.58;-38.43
1339.779;-38.65
1339.978;-38.9
1340.177;-39.19
1340.376;-39.53
1340.575;-39.9
1340.774;-40.3
1340.974;-40.71
1341.173;-41.17
1341.372;-41.67
1341.571;-42.19
1341.77;-42.75
1341.969;-43.32
1342.168;-43.91
1342.367;-44.52
1342.566;-45.12
1342.766;-45.74
1342.965;-46.32
1343.164;-46.9
1343.363;-47.4
1343.562;-47.86
1343.761;-48.26
1343.96;-48.64
1344.159;-48.83
1344.358;-48.98
1344.558;-49.07
1344.757;-49.1
1344.956;-49.07
1345.155;-49.03
1345.354;-48.94
1345.553;-48.86
1345.752;-48.76
1345.951;-48.68
1346.15;-48.6
1346.35;-48.52
1346.549;-48.48
1346.748;-48.41
1346.947;-48.36
1347.146;-48.33
1347.345;-48.28
1347.544;-48.33
1347.743;-48.36
1347.943;-48.4
1348.142;-48.4
1348.341;-48.43
1348.54;-48.44
1348.739;-48.45
1348.938;-48.48
1349.137;-48.5
1349.336;-48.52
1349.535;-48.57
1349.735;-48.61
1349.934;-48.69
1350.133;-48.76
1350.332;-48.9
1350.531;-49.0
1350.73;-49.07
1350.929;-49.12
1351.128;-49.14
1351.327;-49.21
1351.527;-49.29
1351.726;-49.43
1351.925;-49.54
1352.124;-49.62
1352.323;-49.73
1352.522;-49.86
1352.721;-49.95
1352.92;-50.04
1353.12;-50.26
1353.319;-50.33
1353.518;-50.46
1353.717;-50.63
1353.916;-50.7
1354.115;-50.85
1354.314;-51.09
1354.513;-51.29
1354.712;-51.64
1354.912;-51.96
1355.111;-52.19
1355.31;-52.39
1355.509;-52.45
1355.708;-52.79
1355.907;-53.13
1356.106;-53.4
1356.305;-53.58
1356.504;-53.81
1356.704;-53.81
1356.903;-54.06
1357.102;-54.54
1357.301;-54.85
1357.5;-55.14
1357.699;-55.4
1357.898;-55.53
1358.097;-55.65
1358.297;-55.88
1358.496;-56.15
1358.695;-56.31
1358.894;-56.47
1359.093;-56.61
1359.292;-56.64
1359.491;-56.98
1359.69;-57.22
1359.889;-57.37
1360.089;-57.36
1360.288;-57.32
1360.487;-57.22
1360.686;-57.31
1360.885;-57.59
1361.084;-57.79
1361.283;-57.87
1361.482;-57.95
1361.681;-58.11
1361.881;-58.16
1362.08;-58.3
1362.279;-58.89
1362.478;-58.89
1362.677;-58.98
1362.876;-58.81
1363.075;-58.75
1363.274;-58.47
1363.474;-58.54
1363.673;-58.63
1363.872;-58.77
1364.071;-59.01
1364.27;-59.21
1364.469;-59.56
1364.668;-60.11
1364.867;-60.37
1365.066;-60.4
1365.266;-60.63
1365.465;-60.62
1365.664;-60.75
1365.863;-60.86
1366.062;-60.93
1366.261;-61.0
1366.46;-61.16
1366.659;-61.39
1366.858;-61.74
1367.058;-61.92
1367.257;-62.12
1367.456;-62.45
1367.655;-62.72
1367.854;-63.08
1368.053;-63.27
1368.252;-63.31
1368.451;-63.74
1368.65;-63.89
1368.85;-64.09
1369.049;-64.13
1369.248;-64.16
1369.447;-64.13
1369.646;-64.36
1369.845;-64.74
1370.044;-64.96
1370.243;-65.13
1370.443;-65.3
1370.642;-65.46
1370.841;-65.79
1371.04;-66.16
1371.239;-66.54
1371.438;-66.57
1371.637;-66.69
1371.836;-66.8
1372.035;-67.14
1372.235;-67.5
1372.434;-67.78
1372.633;-68.03
1372.832;-68.34
1373.031;-68.69
1373.23;-68.93
1373.429;-69.42
1373.628;-69.68
1373.827;-69.9
1374.027;-70.52
1374.226;-70.79
1374.425;-71.58
1374.624;-71.89
1374.823;-72.63
1375.022;-73.22
1375.221;-73.76
1375.42;-74.03
1375.62;-74.31
1375.819;-74.64
1376.018;-74.9
1376.217;-75.95
1376.416;-75.9
1376.615;-75.72
1376.814;-75.99
1377.013;-75.94
1377.212;-75.91
1377.412;-76.38
1377.611;-76.11
1377.81;-75.69
1378.009;-75.26
1378.208;-75.58
1378.407;-75.17
1378.606;-75.17
1378.805;-74.96
1379.004;-74.71
1379.204;-74.56
1379.403;-74.11
1379.602;-73.78
1379.801;-74.0
1380.0;-73.93
1380.199;-73.62
1380.398;-73.94
1380.597;-74.27
1380.797;-74.75
1380.996;-74.57
1381.195;-74.62
1381.394;-74.39
1381.593;-74.42
1381.792;-74.27
1381.991;-74.71
1382.19;-74.53
1382.389;-75.11
1382.589;-75.36
1382.788;-75.97
1382.987;-77.45
1383.186;-77.31
1383.385;-76.69
1383.584;-76.75
1383.783;-77.56
1383.982;-77.81
1384.181;-78.59
1384.381;-78.51
1384.58;-79.39
1384.779;-80.97
1384.978;-80.39
1385.177;-82.11
1385.376;-82.71
1385.575;-81.87
1385.774;-81.42
1385.974;-83.24
1386.173;-83.4
1386.372;-83.75
1386.571;-85.51
1386.77;-85.51
1386.969;-84.33
1387.168;-82.17
1387.367;-82.78
1387.566;-83.24
1387.766;-81.99
1387.965;-81.53
1388.164;-82.78
1388.363;-81.53
1388.562;-81.93
1388.761;-83.32
1388.96;-80.87
1389.159;-80.65
1389.358;-81.99
1389.558;-85.24
1389.757;-82.05
1389.956;-81.81
1390.155;-82.11
1390.354;-81.32
1390.553;-82.23
1390.752;-82.78
1390.951;-83.75
1391.15;-82.78
1391.35;-83.16
1391.549;-80.75
1391.748;-80.4
1391.947;-83.49
1392.146;-80.32
1392.345;-82.37
1392.544;-82.37
1392.743;-82.94
1392.943;-84.55
1393.142;-81.65
1393.341;-82.18
1393.54;-84.77
1393.739;-83.76
1393.938;-80.88
1394.137;-83.09
1394.336;-85.8
1394.535;-90.57
1394.735;-84.04
1394.934;-85.25
1395.133;-83.49
1395.332;-81.08
1395.531;-80.12
1395.73;-81.48
1395.929;-89.11
1396.128;-80.88
1396.327;-83.09
1396.527;-83.49
1396.726;-83.41
1396.925;-83.33
1397.124;-82.51
1397.323;-84.77
1397.522;-82.86
1397.721;-80.75
1397.92;-80.4
1398.12;-81.43
1398.319;-82.86
1398.518;-81.77
1398.717;-79.68
1398.916;-82.19
1399.115;-81.89
1399.314;-83.34
1399.513;-81.66
1399.712;-80.58
1399.912;-83.68
1400.111;-83.68
1400.31;-86.6
1400.509;-83.59
1400.708;-85.53
1400.907;-86.78
1401.106;-83.1
1401.305;-85.02
1401.504;-81.89
1401.704;-83.1
1401.903;-83.77
1402.102;-83.1
1402.301;-81.34
1402.5;-85.02
1402.699;-82.52
1402.898;-83.68
1403.097;-81.89
1403.297;-87.79
1403.496;-84.45
1403.695;-83.59
1403.894;-82.73
1404.093;-83.42
1404.292;-83.42
1404.491;-83.68
1404.69;-89.79
1404.889;-84.05
1405.089;-83.26
1405.288;-81.55
1405.487;-82.52
1405.686;-83.77
1405.885;-82.73
1406.084;-81.13
1406.283;-83.42
1406.482;-80.94
1406.681;-82.39
1406.881;-80.9
1407.08;-83.43
1407.279;-81.5
1407.478;-82.26
1407.677;-81.84
1407.876;-84.15
1408.075;-81.56
1408.274;-81.72
1408.474;-80.77
1408.673;-82.81
1408.872;-86.12
1409.071;-81.9
1409.27;-81.67
1409.469;-84.36
1409.668;-80.72
1409.867;-81.5
1410.066;-83.87
1410.266;-81.56
1410.465;-84.25
1410.664;-83.87
1410.863;-89.13
1411.062;-85.03
1411.261;-82.53
1411.46;-81.78
1411.659;-80.95
1411.858;-82.74
1412.058;-81.4
1412.257;-82.14
1412.456;-80.86
1412.655;-84.15
1412.854;-82.53
1413.053;-83.69
1413.252;-85.27
1413.451;-81.78
1413.65;-82.03
1413.85;-82.4
1414.049;-81.91
1414.248;-82.03
1414.447;-82.47
1414.646;-80.35
1414.845;-81.46
1415.044;-82.21
1415.243;-82.03
1415.443;-82.27
1415.642;-82.4
1415.841;-85.83
1416.04;-82.97
1416.239;-82.21
1416.438;-81.41
1416.637;-82.54
1416.836;-82.27
1417.035;-81.25
1417.235;-81.06
1417.434;-82.54
1417.633;-81.68
1417.832;-81.2
1418.031;-79.95
1418.23;-80.78
1418.429;-83.36
1418.628;-82.54
1418.827;-81.06
1419.027;-82.54
1419.226;-82.34
1419.425;-81.73
1419.624;-82.75
1419.823;-82.27
1420.022;-80.23
1420.221;-80.78
1420.42;-81.06
1420.62;-82.15
1420.819;-81.15
1421.018;-82.68
1421.217;-83.44
1421.416;-82.27
1421.615;-83.45
1421.814;-84.48
1422.013;-81.21
1422.212;-81.26
1422.412;-83.53
1422.611;-82.9
1422.81;-84.81
1423.009;-82.04
1423.208;-81.58
1423.407;-83.21
1423.606;-82.22
1423.805;-82.22
1424.004;-82.98
1424.204;-80.52
1424.403;-80.08
1424.602;-81.8
1424.801;-82.55
1425.0;-80.65
