Wavelength;Intensity_Meas;Intensity_Ref;Difference_dB
1200.0000;-57.9600;-54.7600;-3.2000
1200.1990;-57.8900;-54.7300;-3.1600
1200.3980;-57.8800;-54.7000;-3.1800
1200.5970;-57.9100;-54.6700;-3.2400
1200.7970;-57.9300;-54.6400;-3.2900
1200.9960;-57.8900;-54.6100;-3.2800
1201.1950;-57.8500;-54.5600;-3.2900
1201.3940;-57.8600;-54.5300;-3.3300
1201.5930;-57.8500;-54.4900;-3.3600
1201.7920;-57.8200;-54.4200;-3.4000
1201.9910;-57.7800;-54.3800;-3.4000
1202.1900;-57.7300;-54.3300;-3.4000
1202.3890;-57.7000;-54.2800;-3.4200
1202.5890;-57.6900;-54.2200;-3.4700
1202.7880;-57.6400;-54.1600;-3.4800
1202.9870;-57.5600;-54.1200;-3.4400
1203.1860;-57.5100;-54.0600;-3.4500
1203.3850;-57.5300;-54.0100;-3.5200
1203.5840;-57.4600;-53.9700;-3.4900
1203.7830;-57.3800;-53.9100;-3.4700
1203.9820;-57.3500;-53.9000;-3.4500
1204.1810;-57.3300;-53.8400;-3.4900
1204.3810;-57.2900;-53.8000;-3.4900
1204.5800;-57.2200;-53.7700;-3.4500
1204.7790;-57.1900;-53.7300;-3.4600
1204.9780;-57.1800;-53.7100;-3.4700
1205.1770;-57.1400;-53.6600;-3.4800
1205.3760;-57.0900;-53.6500;-3.4400
1205.5750;-57.0700;-53.6300;-3.4400
1205.7740;-57.0900;-53.6000;-3.4900
1205.9740;-57.0700;-53.5900;-3.4800
1206.1730;-57.0200;-53.5600;-3.4600
1206.3720;-57.0300;-53.5400;-3.4900
1206.5710;-57.0500;-53.5200;-3.5300
1206.7700;-57.0500;-53.4900;-3.5600
1206.9690;-57.0100;-53.4600;-3.5500
1207.1680;-56.9900;-53.4200;-3.5700
1207.3670;-57.0000;-53.4000;-3.6000
1207.5660;-57.0000;-53.3700;-3.6300
1207.7660;-56.9900;-53.3200;-3.6700
1207.9650;-56.9600;-53.3000;-3.6600
1208.1640;-56.9200;-53.2500;-3.6700
1208.3630;-56.9400;-53.1900;-3.7500
1208.5620;-56.9300;-53.1500;-3.7800
1208.7610;-56.8500;-53.1100;-3.7400
1208.9600;-56.8200;-53.0500;-3.7700
1209.1590;-56.8100;-52.9800;-3.8300
1209.3580;-56.7900;-52.9300;-3.8600
1209.5580;-56.6900;-52.8900;-3.8000
1209.7570;-56.6500;-52.8200;-3.8300
1209.9560;-56.6500;-52.7700;-3.8800
1210.1550;-56.5700;-52.7100;-3.8600
1210.3540;-56.5100;-52.6500;-3.8600
1210.5530;-56.4700;-52.6200;-3.8500
1210.7520;-56.4400;-52.5600;-3.8800
1210.9510;-56.3800;-52.5200;-3.8600
1211.1500;-56.3200;-52.4600;-3.8600
1211.3500;-56.2700;-52.4100;-3.8600
1211.5490;-56.2400;-52.3900;-3.8500
1211.7480;-56.1900;-52.3300;-3.8600
1211.9470;-56.1600;-52.3000;-3.8600
1212.1460;-56.0800;-52.2600;-3.8200
1212.3450;-56.0600;-52.2200;-3.8400
1212.5440;-56.0500;-52.2100;-3.8400
1212.7430;-55.9800;-52.1700;-3.8100
1212.9430;-55.9100;-52.1400;-3.7700
1213.1420;-55.8900;-52.1000;-3.7900
1213.3410;-55.8900;-52.0700;-3.8200
1213.5400;-55.8000;-52.0500;-3.7500
1213.7390;-55.7600;-52.0000;-3.7600
1213.9380;-55.7300;-51.9800;-3.7500
1214.1370;-55.6900;-51.9300;-3.7600
1214.3360;-55.6200;-51.8800;-3.7400
1214.5350;-55.5700;-51.8600;-3.7100
1214.7350;-55.5400;-51.8100;-3.7300
1214.9340;-55.4700;-51.7600;-3.7100
1215.1330;-55.4100;-51.7000;-3.7100
1215.3320;-55.3400;-51.6400;-3.7000
1215.5310;-55.2700;-51.6100;-3.6600
1215.7300;-55.2400;-51.5400;-3.7000
1215.9290;-55.1500;-51.4900;-3.6600
1216.1280;-55.0600;-51.4200;-3.6400
1216.3270;-54.9800;-51.3600;-3.6200
1216.5270;-54.9300;-51.3100;-3.6200
1216.7260;-54.8600;-51.2400;-3.6200
1216.9250;-54.7500;-51.1800;-3.5700
1217.1240;-54.6800;-51.1100;-3.5700
1217.3230;-54.6200;-51.0500;-3.5700
1217.5220;-54.5300;-51.0100;-3.5200
1217.7210;-54.4400;-50.9400;-3.5000
1217.9200;-54.3600;-50.9000;-3.4600
1218.1200;-54.2800;-50.8300;-3.4500
1218.3190;-54.2000;-50.7900;-3.4100
1218.5180;-54.1300;-50.7500;-3.3800
1218.7170;-54.0600;-50.7000;-3.3600
1218.9160;-53.9800;-50.6700;-3.3100
1219.1150;-53.9200;-50.6100;-3.3100
1219.3140;-53.8500;-50.5700;-3.2800
1219.5130;-53.7800;-50.5400;-3.2400
1219.7120;-53.7400;-50.5100;-3.2300
1219.9120;-53.6700;-50.4700;-3.2000
1220.1110;-53.6000;-50.4200;-3.1800
1220.3100;-53.5500;-50.3800;-3.1700
1220.5090;-53.5000;-50.3400;-3.1600
1220.7080;-53.4500;-50.2900;-3.1600
1220.9070;-53.3700;-50.2600;-3.1100
1221.1060;-53.3100;-50.2000;-3.1100
1221.3050;-53.2700;-50.1400;-3.1300
1221.5040;-53.1900;-50.0900;-3.1000
1221.7040;-53.1400;-50.0200;-3.1200
1221.9030;-53.0700;-49.9700;-3.1000
1222.1020;-52.9900;-49.8900;-3.1000
1222.3010;-52.9300;-49.8300;-3.1000
1222.5000;-52.8500;-49.7600;-3.0900
1222.6990;-52.7800;-49.6900;-3.0900
1222.8980;-52.7000;-49.6300;-3.0700
1223.0970;-52.6200;-49.5400;-3.0800
1223.2970;-52.5400;-49.4700;-3.0700
1223.4960;-52.4400;-49.3900;-3.0500
1223.6950;-52.3700;-49.3100;-3.0600
1223.8940;-52.2800;-49.2500;-3.0300
1224.0930;-52.1800;-49.1700;-3.0100
1224.2920;-52.1000;-49.1000;-3.0000
1224.4910;-52.0100;-49.0300;-2.9800
1224.6900;-51.9400;-48.9600;-2.9800
1224.8890;-51.8400;-48.9100;-2.9300
1225.0890;-51.7600;-48.8400;-2.9200
1225.2880;-51.6900;-48.7700;-2.9200
1225.4870;-51.6000;-48.7200;-2.8800
1225.6860;-51.5400;-48.6600;-2.8800
1225.8850;-51.4700;-48.6200;-2.8500
1226.0840;-51.4000;-48.5500;-2.8500
1226.2830;-51.3500;-48.5000;-2.8500
1226.4820;-51.2800;-48.4400;-2.8400
1226.6810;-51.2300;-48.3800;-2.8500
1226.8810;-51.1800;-48.3400;-2.8400
1227.0800;-51.1200;-48.2700;-2.8500
1227.2790;-51.0900;-48.2200;-2.8700
1227.4780;-51.0200;-48.1600;-2.8600
1227.6770;-50.9800;-48.1000;-2.8800
1227.8760;-50.9300;-48.0400;-2.8900
1228.0750;-50.8600;-47.9600;-2.9000
1228.2740;-50.8200;-47.8900;-2.9300
1228.4740;-50.7500;-47.8300;-2.9200
1228.6730;-50.7000;-47.7500;-2.9500
1228.8720;-50.6300;-47.6800;-2.9500
1229.0710;-50.5600;-47.5900;-2.9700
1229.2700;-50.5000;-47.5100;-2.9900
1229.4690;-50.4100;-47.4300;-2.9800
1229.6680;-50.3400;-47.3500;-2.9900
1229.8670;-50.2500;-47.2700;-2.9800
1230.0660;-50.1600;-47.1800;-2.9800
1230.2660;-50.0900;-47.0900;-3.0000
1230.4650;-49.9700;-47.0100;-2.9600
1230.6640;-49.8900;-46.9200;-2.9700
1230.8630;-49.8100;-46.8600;-2.9500
1231.0620;-49.7200;-46.7700;-2.9500
1231.2610;-49.6500;-46.7100;-2.9400
1231.4600;-49.5700;-46.6500;-2.9200
1231.6590;-49.4800;-46.5700;-2.9100
1231.8580;-49.3900;-46.5100;-2.8800
1232.0580;-49.3100;-46.4400;-2.8700
1232.2570;-49.2400;-46.3800;-2.8600
1232.4560;-49.1700;-46.3300;-2.8400
1232.6550;-49.0900;-46.2600;-2.8300
1232.8540;-49.0000;-46.2000;-2.8000
1233.0530;-48.9300;-46.1400;-2.7900
1233.2520;-48.8600;-46.0700;-2.7900
1233.4510;-48.7700;-46.0100;-2.7600
1233.6500;-48.7000;-45.9400;-2.7600
1233.8500;-48.6100;-45.8900;-2.7200
1234.0490;-48.5300;-45.8000;-2.7300
1234.2480;-48.4400;-45.7500;-2.6900
1234.4470;-48.3400;-45.6600;-2.6800
1234.6460;-48.2600;-45.6000;-2.6600
1234.8450;-48.1500;-45.5200;-2.6300
1235.0440;-48.0400;-45.4400;-2.6000
1235.2430;-47.9600;-45.3800;-2.5800
1235.4430;-47.8400;-45.2700;-2.5700
1235.6420;-47.7500;-45.2000;-2.5500
1235.8410;-47.6300;-45.1000;-2.5300
1236.0400;-47.5300;-45.0100;-2.5200
1236.2390;-47.4200;-44.9200;-2.5000
1236.4380;-47.3000;-44.8100;-2.4900
1236.6370;-47.2100;-44.7300;-2.4800
1236.8360;-47.1000;-44.6400;-2.4600
1237.0350;-47.0000;-44.5500;-2.4500
1237.2350;-46.9100;-44.4700;-2.4400
1237.4340;-46.8100;-44.3600;-2.4500
1237.6330;-46.7300;-44.2900;-2.4400
1237.8320;-46.6400;-44.2100;-2.4300
1238.0310;-46.5400;-44.1100;-2.4300
1238.2300;-46.4700;-44.0500;-2.4200
1238.4290;-46.3800;-43.9500;-2.4300
1238.6280;-46.3100;-43.8800;-2.4300
1238.8270;-46.2100;-43.7900;-2.4200
1239.0270;-46.1400;-43.7200;-2.4200
1239.2260;-46.0500;-43.6500;-2.4000
1239.4250;-45.9600;-43.5500;-2.4100
1239.6240;-45.8700;-43.4800;-2.3900
1239.8230;-45.7900;-43.3900;-2.4000
1240.0220;-45.7200;-43.3100;-2.4100
1240.2210;-45.6200;-43.2300;-2.3900
1240.4200;-45.5300;-43.1300;-2.4000
1240.6200;-45.4300;-43.0500;-2.3800
1240.8190;-45.3300;-42.9400;-2.3900
1241.0180;-45.2300;-42.8300;-2.4000
1241.2170;-45.1200;-42.7300;-2.3900
1241.4160;-45.0200;-42.6200;-2.4000
1241.6150;-44.8900;-42.5000;-2.3900
1241.8140;-44.7900;-42.3900;-2.4000
1242.0130;-44.7000;-42.2700;-2.4300
1242.2120;-44.5900;-42.1700;-2.4200
1242.4120;-44.4900;-42.0400;-2.4500
1242.6110;-44.3800;-41.9300;-2.4500
1242.8100;-44.2800;-41.8000;-2.4800
1243.0090;-44.1900;-41.6800;-2.5100
1243.2080;-44.0900;-41.5700;-2.5200
1243.4070;-44.0100;-41.4500;-2.5600
1243.6060;-43.9100;-41.3300;-2.5800
1243.8050;-43.8300;-41.2100;-2.6200
1244.0040;-43.7600;-41.0900;-2.6700
1244.2040;-43.6800;-40.9900;-2.6900
1244.4030;-43.6100;-40.8700;-2.7400
1244.6020;-43.5300;-40.7600;-2.7700
1244.8010;-43.4600;-40.6400;-2.8200
1245.0000;-43.4000;-40.5300;-2.8700
1245.1990;-43.3300;-40.4300;-2.9000
1245.3980;-43.2700;-40.3100;-2.9600
1245.5970;-43.1900;-40.2000;-2.9900
1245.7970;-43.1200;-40.0800;-3.0400
1245.9960;-43.0600;-39.9600;-3.1000
1246.1950;-42.9800;-39.8600;-3.1200
1246.3940;-42.9100;-39.7300;-3.1800
1246.5930;-42.8300;-39.6000;-3.2300
1246.7920;-42.7400;-39.4800;-3.2600
1246.9910;-42.6600;-39.3400;-3.3200
1247.1900;-42.5800;-39.2300;-3.3500
1247.3890;-42.4900;-39.0900;-3.4000
1247.5890;-42.3900;-38.9600;-3.4300
1247.7880;-42.2900;-38.8200;-3.4700
1247.9870;-42.2000;-38.6800;-3.5200
1248.1860;-42.1000;-38.5600;-3.5400
1248.3850;-42.0000;-38.4100;-3.5900
1248.5840;-41.8900;-38.2800;-3.6100
1248.7830;-41.7900;-38.1400;-3.6500
1248.9820;-41.7000;-38.0100;-3.6900
1249.1810;-41.5900;-37.8800;-3.7100
1249.3810;-41.4900;-37.7400;-3.7500
1249.5800;-41.3700;-37.6100;-3.7600
1249.7790;-41.2700;-37.4700;-3.8000
1249.9780;-41.1800;-37.3300;-3.8500
1250.1770;-41.0700;-37.2200;-3.8500
1250.3760;-40.9800;-37.0800;-3.9000
1250.5750;-40.8600;-36.9500;-3.9100
1250.7740;-40.7600;-36.8200;-3.9400
1250.9740;-40.6900;-36.7000;-3.9900
1251.1730;-40.5800;-36.5800;-4.0000
1251.3720;-40.4900;-36.4400;-4.0500
1251.5710;-40.3900;-36.3400;-4.0500
1251.7700;-40.2900;-36.2000;-4.0900
1251.9690;-40.1900;-36.0700;-4.1200
1252.1680;-40.0800;-35.9400;-4.1400
1252.3670;-39.9800;-35.7800;-4.2000
1252.5660;-39.8600;-35.6800;-4.1800
1252.7660;-39.7500;-35.5400;-4.2100
1252.9650;-39.6400;-35.4300;-4.2100
1253.1640;-39.5100;-35.2800;-4.2300
1253.3630;-39.3900;-35.1400;-4.2500
1253.5620;-39.2600;-35.0200;-4.2400
1253.7610;-39.1200;-34.8800;-4.2400
1253.9600;-39.0000;-34.7600;-4.2400
1254.1590;-38.8500;-34.6100;-4.2400
1254.3580;-38.7200;-34.4800;-4.2400
1254.5580;-38.5700;-34.3500;-4.2200
1254.7570;-38.4200;-34.2100;-4.2100
1254.9560;-38.2800;-34.0800;-4.2000
1255.1550;-38.1300;-33.9500;-4.1800
1255.3540;-37.9900;-33.8200;-4.1700
1255.5530;-37.8400;-33.7000;-4.1400
1255.7520;-37.7000;-33.5700;-4.1300
1255.9510;-37.5400;-33.4500;-4.0900
1256.1500;-37.4000;-33.3100;-4.0900
1256.3500;-37.2700;-33.1900;-4.0800
1256.5490;-37.1200;-33.0700;-4.0500
1256.7480;-36.9800;-32.9400;-4.0400
1256.9470;-36.8300;-32.8200;-4.0100
1257.1460;-36.6800;-32.6900;-3.9900
1257.3450;-36.5400;-32.5600;-3.9800
1257.5440;-36.4000;-32.4400;-3.9600
1257.7430;-36.2600;-32.3100;-3.9500
1257.9430;-36.1100;-32.1900;-3.9200
1258.1420;-35.9700;-32.0600;-3.9100
1258.3410;-35.8100;-31.9400;-3.8700
1258.5400;-35.6900;-31.8100;-3.8800
1258.7390;-35.5600;-31.6800;-3.8800
1258.9380;-35.4100;-31.5500;-3.8600
1259.1370;-35.2800;-31.4200;-3.8600
1259.3360;-35.1300;-31.3000;-3.8300
1259.5350;-35.0000;-31.1700;-3.8300
1259.7350;-34.8600;-31.0400;-3.8200
1259.9340;-34.7200;-30.9100;-3.8100
1260.1330;-34.6000;-30.7800;-3.8200
1260.3320;-34.4500;-30.6600;-3.7900
1260.5310;-34.3200;-30.5300;-3.7900
1260.7300;-34.2000;-30.4100;-3.7900
1260.9290;-34.0500;-30.2900;-3.7600
1261.1280;-33.9400;-30.1500;-3.7900
1261.3270;-33.8100;-30.0400;-3.7700
1261.5270;-33.7000;-29.9200;-3.7800
1261.7260;-33.5800;-29.8000;-3.7800
1261.9250;-33.4500;-29.6800;-3.7700
1262.1240;-33.3500;-29.5500;-3.8000
1262.3230;-33.2300;-29.4400;-3.7900
1262.5220;-33.1300;-29.3200;-3.8100
1262.7210;-33.0200;-29.2000;-3.8200
1262.9200;-32.9100;-29.0800;-3.8300
1263.1200;-32.8100;-28.9600;-3.8500
1263.3190;-32.6900;-28.8400;-3.8500
1263.5180;-32.6000;-28.7200;-3.8800
1263.7170;-32.4900;-28.6000;-3.8900
1263.9160;-32.3800;-28.4800;-3.9000
1264.1150;-32.2900;-28.3500;-3.9400
1264.3140;-32.1800;-28.2400;-3.9400
1264.5130;-32.0900;-28.1100;-3.9800
1264.7120;-31.9900;-27.9900;-4.0000
1264.9120;-31.9000;-27.8600;-4.0400
1265.1110;-31.8100;-27.7400;-4.0700
1265.3100;-31.7100;-27.6200;-4.0900
1265.5090;-31.6300;-27.4900;-4.1400
1265.7080;-31.5500;-27.3800;-4.1700
1265.9070;-31.4600;-27.2600;-4.2000
1266.1060;-31.4000;-27.1300;-4.2700
1266.3050;-31.3100;-27.0300;-4.2800
1266.5040;-31.2500;-26.9100;-4.3400
1266.7040;-31.1900;-26.8000;-4.3900
1266.9030;-31.1200;-26.6800;-4.4400
1267.1020;-31.0700;-26.5700;-4.5000
1267.3010;-31.0100;-26.4700;-4.5400
1267.5000;-30.9700;-26.3500;-4.6200
1267.6990;-30.9200;-26.2500;-4.6700
1267.8980;-30.8800;-26.1300;-4.7500
1268.0970;-30.8500;-26.0200;-4.8300
1268.2970;-30.8100;-25.9100;-4.9000
1268.4960;-30.7800;-25.8200;-4.9600
1268.6950;-30.7400;-25.7100;-5.0300
1268.8940;-30.7000;-25.5900;-5.1100
1269.0930;-30.6800;-25.4900;-5.1900
1269.2920;-30.6400;-25.3700;-5.2700
1269.4910;-30.6200;-25.2600;-5.3600
1269.6900;-30.5800;-25.1500;-5.4300
1269.8890;-30.5500;-25.0300;-5.5200
1270.0890;-30.5300;-24.9300;-5.6000
1270.2880;-30.4900;-24.8000;-5.6900
1270.4870;-30.4700;-24.7000;-5.7700
1270.6860;-30.4400;-24.5900;-5.8500
1270.8850;-30.4100;-24.4700;-5.9400
1271.0840;-30.3900;-24.3700;-6.0200
1271.2830;-30.3600;-24.2600;-6.1000
1271.4820;-30.3400;-24.1500;-6.1900
1271.6810;-30.3100;-24.0500;-6.2600
1271.8810;-30.2900;-23.9400;-6.3500
1272.0800;-30.2900;-23.8500;-6.4400
1272.2790;-30.2700;-23.7300;-6.5400
1272.4780;-30.2700;-23.6400;-6.6300
1272.6770;-30.2500;-23.5400;-6.7100
1272.8760;-30.2500;-23.4300;-6.8200
1273.0750;-30.2500;-23.3400;-6.9100
1273.2740;-30.2400;-23.2300;-7.0100
1273.4740;-30.2500;-23.1300;-7.1200
1273.6730;-30.2400;-23.0300;-7.2100
1273.8720;-30.2500;-22.9300;-7.3200
1274.0710;-30.2400;-22.8400;-7.4000
1274.2700;-30.2400;-22.7300;-7.5100
1274.4690;-30.2400;-22.6300;-7.6100
1274.6680;-30.2300;-22.5200;-7.7100
1274.8670;-30.2200;-22.4100;-7.8100
1275.0660;-30.2000;-22.3200;-7.8800
1275.2660;-30.1700;-22.2000;-7.9700
1275.4650;-30.1600;-22.1100;-8.0500
1275.6640;-30.1200;-22.0100;-8.1100
1275.8630;-30.1000;-21.9100;-8.1900
1276.0620;-30.0500;-21.8100;-8.2400
1276.2610;-30.0000;-21.7100;-8.2900
1276.4600;-29.9600;-21.6200;-8.3400
1276.6590;-29.8900;-21.5100;-8.3800
1276.8580;-29.8400;-21.4200;-8.4200
1277.0580;-29.7700;-21.3400;-8.4300
1277.2570;-29.7000;-21.2300;-8.4700
1277.4560;-29.6400;-21.1600;-8.4800
1277.6550;-29.5600;-21.0600;-8.5000
1277.8540;-29.5000;-20.9700;-8.5300
1278.0530;-29.4100;-20.8800;-8.5300
1278.2520;-29.3300;-20.7900;-8.5400
1278.4510;-29.2400;-20.7200;-8.5200
1278.6500;-29.1400;-20.6200;-8.5200
1278.8500;-29.0600;-20.5300;-8.5300
1279.0490;-28.9500;-20.4400;-8.5100
1279.2480;-28.8500;-20.3500;-8.5000
1279.4470;-28.7400;-20.2800;-8.4600
1279.6460;-28.6200;-20.1800;-8.4400
1279.8450;-28.5200;-20.1000;-8.4200
1280.0440;-28.3900;-20.0100;-8.3800
1280.2430;-28.2700;-19.9100;-8.3600
1280.4430;-28.1300;-19.8400;-8.2900
1280.6420;-28.0000;-19.7500;-8.2500
1280.8410;-27.8600;-19.6700;-8.1900
1281.0400;-27.7200;-19.5800;-8.1400
1281.2390;-27.5800;-19.4900;-8.0900
1281.4380;-27.4300;-19.4200;-8.0100
1281.6370;-27.2800;-19.3300;-7.9500
1281.8360;-27.1300;-19.2600;-7.8700
1282.0350;-26.9700;-19.1700;-7.8000
1282.2350;-26.8200;-19.0900;-7.7300
1282.4340;-26.6600;-19.0100;-7.6500
1282.6330;-26.5100;-18.9400;-7.5700
1282.8320;-26.3500;-18.8700;-7.4800
1283.0310;-26.1900;-18.7800;-7.4100
1283.2300;-26.0200;-18.7100;-7.3100
1283.4290;-25.8800;-18.6400;-7.2400
1283.6280;-25.7400;-18.5600;-7.1800
1283.8270;-25.5700;-18.4900;-7.0800
1284.0270;-25.4200;-18.4100;-7.0100
1284.2260;-25.2700;-18.3400;-6.9300
1284.4250;-25.1100;-18.2700;-6.8400
1284.6240;-24.9800;-18.1900;-6.7900
1284.8230;-24.8200;-18.1300;-6.6900
1285.0220;-24.6800;-18.0400;-6.6400
1285.2210;-24.5300;-17.9700;-6.5600
1285.4200;-24.3800;-17.9000;-6.4800
1285.6200;-24.2500;-17.8300;-6.4200
1285.8190;-24.1000;-17.7700;-6.3300
1286.0180;-23.9700;-17.6900;-6.2800
1286.2170;-23.8300;-17.6200;-6.2100
1286.4160;-23.6900;-17.5400;-6.1500
1286.6150;-23.5800;-17.4800;-6.1000
1286.8140;-23.4400;-17.4300;-6.0100
1287.0130;-23.3200;-17.3500;-5.9700
1287.2120;-23.1900;-17.2900;-5.9000
1287.4120;-23.0700;-17.2200;-5.8500
1287.6110;-22.9600;-17.1500;-5.8100
1287.8100;-22.8300;-17.1000;-5.7300
1288.0090;-22.7400;-17.0200;-5.7200
1288.2080;-22.6200;-16.9700;-5.6500
1288.4070;-22.5200;-16.9000;-5.6200
1288.6060;-22.4200;-16.8400;-5.5800
1288.8050;-22.3200;-16.7900;-5.5300
1289.0040;-22.2400;-16.7200;-5.5200
1289.2040;-22.1400;-16.6700;-5.4700
1289.4030;-22.0500;-16.6000;-5.4500
1289.6020;-21.9800;-16.5400;-5.4400
1289.8010;-21.8900;-16.4900;-5.4000
1290.0000;-21.8300;-16.4200;-5.4100
1290.1990;-21.7400;-16.3800;-5.3600
1290.3980;-21.6700;-16.3100;-5.3600
1290.5970;-21.6100;-16.2700;-5.3400
1290.7970;-21.5400;-16.2100;-5.3300
1290.9960;-21.4800;-16.1400;-5.3400
1291.1950;-21.4100;-16.0900;-5.3200
1291.3940;-21.3600;-16.0400;-5.3200
1291.5930;-21.3000;-15.9800;-5.3200
1291.7920;-21.2500;-15.9200;-5.3300
1291.9910;-21.2100;-15.8700;-5.3400
1292.1900;-21.1600;-15.8100;-5.3500
1292.3890;-21.1300;-15.7600;-5.3700
1292.5890;-21.0800;-15.7100;-5.3700
1292.7880;-21.0500;-15.6500;-5.4000
1292.9870;-21.0300;-15.6200;-5.4100
1293.1860;-21.0100;-15.5600;-5.4500
1293.3850;-21.0000;-15.5100;-5.4900
1293.5840;-20.9700;-15.4500;-5.5200
1293.7830;-20.9600;-15.4000;-5.5600
1293.9820;-20.9600;-15.3700;-5.5900
1294.1810;-20.9500;-15.3100;-5.6400
1294.3810;-20.9600;-15.2700;-5.6900
1294.5800;-20.9500;-15.2200;-5.7300
1294.7790;-20.9600;-15.1700;-5.7900
1294.9780;-20.9700;-15.1300;-5.8400
1295.1770;-20.9800;-15.0800;-5.9000
1295.3760;-21.0100;-15.0400;-5.9700
1295.5750;-21.0200;-14.9800;-6.0400
1295.7740;-21.0500;-14.9300;-6.1200
1295.9740;-21.0600;-14.8900;-6.1700
1296.1730;-21.0900;-14.8400;-6.2500
1296.3720;-21.1400;-14.8100;-6.3300
1296.5710;-21.1600;-14.7500;-6.4100
1296.7700;-21.2200;-14.7100;-6.5100
1296.9690;-21.2500;-14.6700;-6.5800
1297.1680;-21.3000;-14.6300;-6.6700
1297.3670;-21.3600;-14.6000;-6.7600
1297.5660;-21.4000;-14.5400;-6.8600
1297.7660;-21.4700;-14.5000;-6.9700
1297.9650;-21.5300;-14.4700;-7.0600
1298.1640;-21.6000;-14.4300;-7.1700
1298.3630;-21.6700;-14.4100;-7.2600
1298.5620;-21.7300;-14.3500;-7.3800
1298.7610;-21.8200;-14.3300;-7.4900
1298.9600;-21.8900;-14.2900;-7.6000
1299.1590;-21.9900;-14.2500;-7.7400
1299.3580;-22.0700;-14.2300;-7.8400
1299.5580;-22.1500;-14.1800;-7.9700
1299.7570;-22.2600;-14.1500;-8.1100
1299.9560;-22.3500;-14.1200;-8.2300
1300.1550;-22.4700;-14.0900;-8.3800
1300.3540;-22.5600;-14.0600;-8.5000
1300.5530;-22.6600;-14.0100;-8.6500
1300.7520;-22.7700;-14.0000;-8.7700
1300.9510;-22.8800;-13.9600;-8.9200
1301.1500;-23.0200;-13.9400;-9.0800
1301.3500;-23.1200;-13.9100;-9.2100
1301.5490;-23.2500;-13.8900;-9.3600
1301.7480;-23.3600;-13.8800;-9.4800
1301.9470;-23.4800;-13.8400;-9.6400
1302.1460;-23.6100;-13.8300;-9.7800
1302.3450;-23.7200;-13.8100;-9.9100
1302.5440;-23.8500;-13.7900;-10.0600
1302.7430;-23.9600;-13.7800;-10.1800
1302.9430;-24.0600;-13.7500;-10.3100
1303.1420;-24.1900;-13.7500;-10.4400
1303.3410;-24.2900;-13.7200;-10.5700
1303.5400;-24.4100;-13.7100;-10.7000
1303.7390;-24.5000;-13.7100;-10.7900
1303.9380;-24.5800;-13.6800;-10.9000
1304.1370;-24.6800;-13.6800;-11.0000
1304.3360;-24.7500;-13.6600;-11.0900
1304.5350;-24.8500;-13.6500;-11.2000
1304.7350;-24.9000;-13.6400;-11.2600
1304.9340;-24.9500;-13.6300;-11.3200
1305.1330;-25.0100;-13.6300;-11.3800
1305.3320;-25.0300;-13.6000;-11.4300
1305.5310;-25.0800;-13.6100;-11.4700
1305.7300;-25.0800;-13.6000;-11.4800
1305.9290;-25.0900;-13.5800;-11.5100
1306.1280;-25.0900;-13.6000;-11.4900
1306.3270;-25.0700;-13.5800;-11.4900
1306.5270;-25.0500;-13.5900;-11.4600
1306.7260;-25.0000;-13.5900;-11.4100
1306.9250;-24.9600;-13.5800;-11.3800
1307.1240;-24.8900;-13.6000;-11.2900
1307.3230;-24.8200;-13.5900;-11.2300
1307.5220;-24.7500;-13.6100;-11.1400
1307.7210;-24.6500;-13.6100;-11.0400
1307.9200;-24.5700;-13.6100;-10.9600
1308.1200;-24.4600;-13.6300;-10.8300
1308.3190;-24.3500;-13.6300;-10.7200
1308.5180;-24.2400;-13.6500;-10.5900
1308.7170;-24.1100;-13.6500;-10.4600
1308.9160;-24.0000;-13.6500;-10.3500
1309.1150;-23.8700;-13.6800;-10.1900
1309.3140;-23.7400;-13.6900;-10.0500
1309.5130;-23.6100;-13.7200;-9.8900
1309.7120;-23.4800;-13.7200;-9.7600
1309.9120;-23.3500;-13.7400;-9.6100
