Wavelength;Intensity_Meas;Intensity_Ref;Difference_dB
1200.0000;-57.5900;-54.7600;-2.8300
1200.1990;-57.5200;-54.7300;-2.7900
1200.3980;-57.4900;-54.7000;-2.7900
1200.5970;-57.5200;-54.6700;-2.8500
1200.7970;-57.5100;-54.6400;-2.8700
1200.9960;-57.4800;-54.6100;-2.8700
1201.1950;-57.4500;-54.5600;-2.8900
1201.3940;-57.4300;-54.5300;-2.9000
1201.5930;-57.4100;-54.4900;-2.9200
1201.7920;-57.3700;-54.4200;-2.9500
1201.9910;-57.3500;-54.3800;-2.9700
1202.1900;-57.2900;-54.3300;-2.9600
1202.3890;-57.2500;-54.2800;-2.9700
1202.5890;-57.2500;-54.2200;-3.0300
1202.7880;-57.1900;-54.1600;-3.0300
1202.9870;-57.1200;-54.1200;-3.0000
1203.1860;-57.0600;-54.0600;-3.0000
1203.3850;-57.0600;-54.0100;-3.0500
1203.5840;-57.0100;-53.9700;-3.0400
1203.7830;-56.9100;-53.9100;-3.0000
1203.9820;-56.8900;-53.9000;-2.9900
1204.1810;-56.8800;-53.8400;-3.0400
1204.3810;-56.8200;-53.8000;-3.0200
1204.5800;-56.7600;-53.7700;-2.9900
1204.7790;-56.7100;-53.7300;-2.9800
1204.9780;-56.7200;-53.7100;-3.0100
1205.1770;-56.6900;-53.6600;-3.0300
1205.3760;-56.6100;-53.6500;-2.9600
1205.5750;-56.6000;-53.6300;-2.9700
1205.7740;-56.5900;-53.6000;-2.9900
1205.9740;-56.6000;-53.5900;-3.0100
1206.1730;-56.5500;-53.5600;-2.9900
1206.3720;-56.5000;-53.5400;-2.9600
1206.5710;-56.5200;-53.5200;-3.0000
1206.7700;-56.5000;-53.4900;-3.0100
1206.9690;-56.4900;-53.4600;-3.0300
1207.1680;-56.4500;-53.4200;-3.0300
1207.3670;-56.4300;-53.4000;-3.0300
1207.5660;-56.4300;-53.3700;-3.0600
1207.7660;-56.4000;-53.3200;-3.0800
1207.9650;-56.3700;-53.3000;-3.0700
1208.1640;-56.3100;-53.2500;-3.0600
1208.3630;-56.3000;-53.1900;-3.1100
1208.5620;-56.3000;-53.1500;-3.1500
1208.7610;-56.2100;-53.1100;-3.1000
1208.9600;-56.1700;-53.0500;-3.1200
1209.1590;-56.1700;-52.9800;-3.1900
1209.3580;-56.1100;-52.9300;-3.1800
1209.5580;-56.0400;-52.8900;-3.1500
1209.7570;-55.9700;-52.8200;-3.1500
1209.9560;-55.9600;-52.7700;-3.1900
1210.1550;-55.9000;-52.7100;-3.1900
1210.3540;-55.8200;-52.6500;-3.1700
1210.5530;-55.7900;-52.6200;-3.1700
1210.7520;-55.7300;-52.5600;-3.1700
1210.9510;-55.6800;-52.5200;-3.1600
1211.1500;-55.6200;-52.4600;-3.1600
1211.3500;-55.5600;-52.4100;-3.1500
1211.5490;-55.5200;-52.3900;-3.1300
1211.7480;-55.4700;-52.3300;-3.1400
1211.9470;-55.4300;-52.3000;-3.1300
1212.1460;-55.3500;-52.2600;-3.0900
1212.3450;-55.3000;-52.2200;-3.0800
1212.5440;-55.3000;-52.2100;-3.0900
1212.7430;-55.2400;-52.1700;-3.0700
1212.9430;-55.1600;-52.1400;-3.0200
1213.1420;-55.1200;-52.1000;-3.0200
1213.3410;-55.1000;-52.0700;-3.0300
1213.5400;-55.0500;-52.0500;-3.0000
1213.7390;-54.9700;-52.0000;-2.9700
1213.9380;-54.9500;-51.9800;-2.9700
1214.1370;-54.9100;-51.9300;-2.9800
1214.3360;-54.8400;-51.8800;-2.9600
1214.5350;-54.8000;-51.8600;-2.9400
1214.7350;-54.7400;-51.8100;-2.9300
1214.9340;-54.6900;-51.7600;-2.9300
1215.1330;-54.6200;-51.7000;-2.9200
1215.3320;-54.5600;-51.6400;-2.9200
1215.5310;-54.5000;-51.6100;-2.8900
1215.7300;-54.4400;-51.5400;-2.9000
1215.9290;-54.3900;-51.4900;-2.9000
1216.1280;-54.2900;-51.4200;-2.8700
1216.3270;-54.2000;-51.3600;-2.8400
1216.5270;-54.1700;-51.3100;-2.8600
1216.7260;-54.1000;-51.2400;-2.8600
1216.9250;-54.0100;-51.1800;-2.8300
1217.1240;-53.9200;-51.1100;-2.8100
1217.3230;-53.8700;-51.0500;-2.8200
1217.5220;-53.8000;-51.0100;-2.7900
1217.7210;-53.7000;-50.9400;-2.7600
1217.9200;-53.6400;-50.9000;-2.7400
1218.1200;-53.5700;-50.8300;-2.7400
1218.3190;-53.4900;-50.7900;-2.7000
1218.5180;-53.4400;-50.7500;-2.6900
1218.7170;-53.3700;-50.7000;-2.6700
1218.9160;-53.3200;-50.6700;-2.6500
1219.1150;-53.2500;-50.6100;-2.6400
1219.3140;-53.1900;-50.5700;-2.6200
1219.5130;-53.1400;-50.5400;-2.6000
1219.7120;-53.0900;-50.5100;-2.5800
1219.9120;-53.0700;-50.4700;-2.6000
1220.1110;-52.9900;-50.4200;-2.5700
1220.3100;-52.9400;-50.3800;-2.5600
1220.5090;-52.9200;-50.3400;-2.5800
1220.7080;-52.8700;-50.2900;-2.5800
1220.9070;-52.8200;-50.2600;-2.5600
1221.1060;-52.7600;-50.2000;-2.5600
1221.3050;-52.7200;-50.1400;-2.5800
1221.5040;-52.6700;-50.0900;-2.5800
1221.7040;-52.6100;-50.0200;-2.5900
1221.9030;-52.5700;-49.9700;-2.6000
1222.1020;-52.5000;-49.8900;-2.6100
1222.3010;-52.4500;-49.8300;-2.6200
1222.5000;-52.3800;-49.7600;-2.6200
1222.6990;-52.3100;-49.6900;-2.6200
1222.8980;-52.2700;-49.6300;-2.6400
1223.0970;-52.1900;-49.5400;-2.6500
1223.2970;-52.1100;-49.4700;-2.6400
1223.4960;-52.0500;-49.3900;-2.6600
1223.6950;-51.9800;-49.3100;-2.6700
1223.8940;-51.9200;-49.2500;-2.6700
1224.0930;-51.8400;-49.1700;-2.6700
1224.2920;-51.7700;-49.1000;-2.6700
1224.4910;-51.7100;-49.0300;-2.6800
1224.6900;-51.6400;-48.9600;-2.6800
1224.8890;-51.5800;-48.9100;-2.6700
1225.0890;-51.5100;-48.8400;-2.6700
1225.2880;-51.4500;-48.7700;-2.6800
1225.4870;-51.4000;-48.7200;-2.6800
1225.6860;-51.3400;-48.6600;-2.6800
1225.8850;-51.3000;-48.6200;-2.6800
1226.0840;-51.2500;-48.5500;-2.7000
1226.2830;-51.2000;-48.5000;-2.7000
1226.4820;-51.1600;-48.4400;-2.7200
1226.6810;-51.1200;-48.3800;-2.7400
1226.8810;-51.0900;-48.3400;-2.7500
1227.0800;-51.0400;-48.2700;-2.7700
1227.2790;-51.0000;-48.2200;-2.7800
1227.4780;-50.9600;-48.1600;-2.8000
1227.6770;-50.9100;-48.1000;-2.8100
1227.8760;-50.8800;-48.0400;-2.8400
1228.0750;-50.8200;-47.9600;-2.8600
1228.2740;-50.7600;-47.8900;-2.8700
1228.4740;-50.7200;-47.8300;-2.8900
1228.6730;-50.6600;-47.7500;-2.9100
1228.8720;-50.6000;-47.6800;-2.9200
1229.0710;-50.5300;-47.5900;-2.9400
1229.2700;-50.4600;-47.5100;-2.9500
1229.4690;-50.3900;-47.4300;-2.9600
1229.6680;-50.3000;-47.3500;-2.9500
1229.8670;-50.2200;-47.2700;-2.9500
1230.0660;-50.1400;-47.1800;-2.9600
1230.2660;-50.0400;-47.0900;-2.9500
1230.4650;-49.9500;-47.0100;-2.9400
1230.6640;-49.8600;-46.9200;-2.9400
1230.8630;-49.7900;-46.8600;-2.9300
1231.0620;-49.6900;-46.7700;-2.9200
1231.2610;-49.6100;-46.7100;-2.9000
1231.4600;-49.5400;-46.6500;-2.8900
1231.6590;-49.4500;-46.5700;-2.8800
1231.8580;-49.3700;-46.5100;-2.8600
1232.0580;-49.2800;-46.4400;-2.8400
1232.2570;-49.2000;-46.3800;-2.8200
1232.4560;-49.1300;-46.3300;-2.8000
1232.6550;-49.0300;-46.2600;-2.7700
1232.8540;-48.9500;-46.2000;-2.7500
1233.0530;-48.8700;-46.1400;-2.7300
1233.2520;-48.7800;-46.0700;-2.7100
1233.4510;-48.6900;-46.0100;-2.6800
1233.6500;-48.6000;-45.9400;-2.6600
1233.8500;-48.5200;-45.8900;-2.6300
1234.0490;-48.4200;-45.8000;-2.6200
1234.2480;-48.3100;-45.7500;-2.5600
1234.4470;-48.2100;-45.6600;-2.5500
1234.6460;-48.1100;-45.6000;-2.5100
1234.8450;-48.0100;-45.5200;-2.4900
1235.0440;-47.8900;-45.4400;-2.4500
1235.2430;-47.7900;-45.3800;-2.4100
1235.4430;-47.6700;-45.2700;-2.4000
1235.6420;-47.5500;-45.2000;-2.3500
1235.8410;-47.4400;-45.1000;-2.3400
1236.0400;-47.3300;-45.0100;-2.3200
1236.2390;-47.2200;-44.9200;-2.3000
1236.4380;-47.0900;-44.8100;-2.2800
1236.6370;-46.9900;-44.7300;-2.2600
1236.8360;-46.8900;-44.6400;-2.2500
1237.0350;-46.7900;-44.5500;-2.2400
1237.2350;-46.6900;-44.4700;-2.2200
1237.4340;-46.5900;-44.3600;-2.2300
1237.6330;-46.5000;-44.2900;-2.2100
1237.8320;-46.4200;-44.2100;-2.2100
1238.0310;-46.3200;-44.1100;-2.2100
1238.2300;-46.2600;-44.0500;-2.2100
1238.4290;-46.1600;-43.9500;-2.2100
1238.6280;-46.0900;-43.8800;-2.2100
1238.8270;-46.0100;-43.7900;-2.2200
1239.0270;-45.9200;-43.7200;-2.2000
1239.2260;-45.8600;-43.6500;-2.2100
1239.4250;-45.7700;-43.5500;-2.2200
1239.6240;-45.7200;-43.4800;-2.2400
1239.8230;-45.6300;-43.3900;-2.2400
1240.0220;-45.5600;-43.3100;-2.2500
1240.2210;-45.4800;-43.2300;-2.2500
1240.4200;-45.3900;-43.1300;-2.2600
1240.6200;-45.3400;-43.0500;-2.2900
1240.8190;-45.2500;-42.9400;-2.3100
1241.0180;-45.1600;-42.8300;-2.3300
1241.2170;-45.0900;-42.7300;-2.3600
1241.4160;-45.0100;-42.6200;-2.3900
1241.6150;-44.9300;-42.5000;-2.4300
1241.8140;-44.8500;-42.3900;-2.4600
1242.0130;-44.7900;-42.2700;-2.5200
1242.2120;-44.7300;-42.1700;-2.5600
1242.4120;-44.6600;-42.0400;-2.6200
1242.6110;-44.6100;-41.9300;-2.6800
1242.8100;-44.5400;-41.8000;-2.7400
1243.0090;-44.4900;-41.6800;-2.8100
1243.2080;-44.4400;-41.5700;-2.8700
1243.4070;-44.4000;-41.4500;-2.9500
1243.6060;-44.3600;-41.3300;-3.0300
1243.8050;-44.3200;-41.2100;-3.1100
1244.0040;-44.2800;-41.0900;-3.1900
1244.2040;-44.2600;-40.9900;-3.2700
1244.4030;-44.2400;-40.8700;-3.3700
1244.6020;-44.2300;-40.7600;-3.4700
1244.8010;-44.2000;-40.6400;-3.5600
1245.0000;-44.2000;-40.5300;-3.6700
1245.1990;-44.1900;-40.4300;-3.7600
1245.3980;-44.1900;-40.3100;-3.8800
1245.5970;-44.1900;-40.2000;-3.9900
1245.7970;-44.1800;-40.0800;-4.1000
1245.9960;-44.1800;-39.9600;-4.2200
1246.1950;-44.1800;-39.8600;-4.3200
1246.3940;-44.1900;-39.7300;-4.4600
1246.5930;-44.2000;-39.6000;-4.6000
1246.7920;-44.2100;-39.4800;-4.7300
1246.9910;-44.2100;-39.3400;-4.8700
1247.1900;-44.2200;-39.2300;-4.9900
1247.3890;-44.2400;-39.0900;-5.1500
1247.5890;-44.2600;-38.9600;-5.3000
1247.7880;-44.2600;-38.8200;-5.4400
1247.9870;-44.2700;-38.6800;-5.5900
1248.1860;-44.2900;-38.5600;-5.7300
1248.3850;-44.3100;-38.4100;-5.9000
1248.5840;-44.3300;-38.2800;-6.0500
1248.7830;-44.3400;-38.1400;-6.2000
1248.9820;-44.3600;-38.0100;-6.3500
1249.1810;-44.3900;-37.8800;-6.5100
1249.3810;-44.4000;-37.7400;-6.6600
1249.5800;-44.4300;-37.6100;-6.8200
1249.7790;-44.4300;-37.4700;-6.9600
1249.9780;-44.4400;-37.3300;-7.1100
1250.1770;-44.4600;-37.2200;-7.2400
1250.3760;-44.4700;-37.0800;-7.3900
1250.5750;-44.4900;-36.9500;-7.5400
1250.7740;-44.4900;-36.8200;-7.6700
1250.9740;-44.5000;-36.7000;-7.8000
1251.1730;-44.5000;-36.5800;-7.9200
1251.3720;-44.4900;-36.4400;-8.0500
1251.5710;-44.4900;-36.3400;-8.1500
1251.7700;-44.4600;-36.2000;-8.2600
1251.9690;-44.4300;-36.0700;-8.3600
1252.1680;-44.3800;-35.9400;-8.4400
1252.3670;-44.3200;-35.7800;-8.5400
1252.5660;-44.2700;-35.6800;-8.5900
1252.7660;-44.1800;-35.5400;-8.6400
1252.9650;-44.1000;-35.4300;-8.6700
1253.1640;-43.9800;-35.2800;-8.7000
1253.3630;-43.8500;-35.1400;-8.7100
1253.5620;-43.7400;-35.0200;-8.7200
1253.7610;-43.5800;-34.8800;-8.7000
1253.9600;-43.4300;-34.7600;-8.6700
1254.1590;-43.2500;-34.6100;-8.6400
1254.3580;-43.0700;-34.4800;-8.5900
1254.5580;-42.8900;-34.3500;-8.5400
1254.7570;-42.6800;-34.2100;-8.4700
1254.9560;-42.4700;-34.0800;-8.3900
1255.1550;-42.2600;-33.9500;-8.3100
1255.3540;-42.0300;-33.8200;-8.2100
1255.5530;-41.8100;-33.7000;-8.1100
1255.7520;-41.5700;-33.5700;-8.0000
1255.9510;-41.3400;-33.4500;-7.8900
1256.1500;-41.0900;-33.3100;-7.7800
1256.3500;-40.8500;-33.1900;-7.6600
1256.5490;-40.6100;-33.0700;-7.5400
1256.7480;-40.3600;-32.9400;-7.4200
1256.9470;-40.1200;-32.8200;-7.3000
1257.1460;-39.8600;-32.6900;-7.1700
1257.3450;-39.6100;-32.5600;-7.0500
1257.5440;-39.3700;-32.4400;-6.9300
1257.7430;-39.1200;-32.3100;-6.8100
1257.9430;-38.8800;-32.1900;-6.6900
1258.1420;-38.6300;-32.0600;-6.5700
1258.3410;-38.4000;-31.9400;-6.4600
1258.5400;-38.1600;-31.8100;-6.3500
1258.7390;-37.9200;-31.6800;-6.2400
1258.9380;-37.7000;-31.5500;-6.1500
1259.1370;-37.4700;-31.4200;-6.0500
1259.3360;-37.2500;-31.3000;-5.9500
1259.5350;-37.0300;-31.1700;-5.8600
1259.7350;-36.8100;-31.0400;-5.7700
1259.9340;-36.6000;-30.9100;-5.6900
1260.1330;-36.3900;-30.7800;-5.6100
1260.3320;-36.1900;-30.6600;-5.5300
1260.5310;-35.9600;-30.5300;-5.4300
1260.7300;-35.8000;-30.4100;-5.3900
1260.9290;-35.6000;-30.2900;-5.3100
1261.1280;-35.4100;-30.1500;-5.2600
1261.3270;-35.2300;-30.0400;-5.1900
1261.5270;-35.0600;-29.9200;-5.1400
1261.7260;-34.8900;-29.8000;-5.0900
1261.9250;-34.7000;-29.6800;-5.0200
1262.1240;-34.5400;-29.5500;-4.9900
1262.3230;-34.3700;-29.4400;-4.9300
1262.5220;-34.2100;-29.3200;-4.8900
1262.7210;-34.0700;-29.2000;-4.8700
1262.9200;-33.9000;-29.0800;-4.8200
1263.1200;-33.7500;-28.9600;-4.7900
1263.3190;-33.6000;-28.8400;-4.7600
1263.5180;-33.4600;-28.7200;-4.7400
1263.7170;-33.3300;-28.6000;-4.7300
1263.9160;-33.1900;-28.4800;-4.7100
1264.1150;-33.0600;-28.3500;-4.7100
1264.3140;-32.9300;-28.2400;-4.6900
1264.5130;-32.8000;-28.1100;-4.6900
1264.7120;-32.6900;-27.9900;-4.7000
1264.9120;-32.5600;-27.8600;-4.7000
1265.1110;-32.4600;-27.7400;-4.7200
1265.3100;-32.3400;-27.6200;-4.7200
1265.5090;-32.2500;-27.4900;-4.7600
1265.7080;-32.1600;-27.3800;-4.7800
1265.9070;-32.0600;-27.2600;-4.8000
1266.1060;-31.9700;-27.1300;-4.8400
1266.3050;-31.8800;-27.0300;-4.8500
1266.5040;-31.8100;-26.9100;-4.9000
1266.7040;-31.7500;-26.8000;-4.9500
1266.9030;-31.6800;-26.6800;-5.0000
1267.1020;-31.6200;-26.5700;-5.0500
1267.3010;-31.5600;-26.4700;-5.0900
1267.5000;-31.5200;-26.3500;-5.1700
1267.6990;-31.4800;-26.2500;-5.2300
1267.8980;-31.4300;-26.1300;-5.3000
1268.0970;-31.4000;-26.0200;-5.3800
1268.2970;-31.3700;-25.9100;-5.4600
1268.4960;-31.3500;-25.8200;-5.5300
1268.6950;-31.3300;-25.7100;-5.6200
1268.8940;-31.3000;-25.5900;-5.7100
1269.0930;-31.2900;-25.4900;-5.8000
1269.2920;-31.2800;-25.3700;-5.9100
1269.4910;-31.2800;-25.2600;-6.0200
1269.6900;-31.2900;-25.1500;-6.1400
1269.8890;-31.2800;-25.0300;-6.2500
1270.0890;-31.2900;-24.9300;-6.3600
1270.2880;-31.3000;-24.8000;-6.5000
1270.4870;-31.3300;-24.7000;-6.6300
1270.6860;-31.3600;-24.5900;-6.7700
1270.8850;-31.3800;-24.4700;-6.9100
1271.0840;-31.4200;-24.3700;-7.0500
1271.2830;-31.4500;-24.2600;-7.1900
1271.4820;-31.5000;-24.1500;-7.3500
1271.6810;-31.5600;-24.0500;-7.5100
1271.8810;-31.6200;-23.9400;-7.6800
1272.0800;-31.7000;-23.8500;-7.8500
1272.2790;-31.7600;-23.7300;-8.0300
1272.4780;-31.8500;-23.6400;-8.2100
1272.6770;-31.9500;-23.5400;-8.4100
1272.8760;-32.0500;-23.4300;-8.6200
1273.0750;-32.1700;-23.3400;-8.8300
1273.2740;-32.2800;-23.2300;-9.0500
1273.4740;-32.4100;-23.1300;-9.2800
1273.6730;-32.5500;-23.0300;-9.5200
1273.8720;-32.6900;-22.9300;-9.7600
1274.0710;-32.8600;-22.8400;-10.0200
1274.2700;-33.0100;-22.7300;-10.2800
1274.4690;-33.1900;-22.6300;-10.5600
1274.6680;-33.3600;-22.5200;-10.8400
1274.8670;-33.5500;-22.4100;-11.1400
1275.0660;-33.7600;-22.3200;-11.4400
1275.2660;-33.9600;-22.2000;-11.7600
1275.4650;-34.1800;-22.1100;-12.0700
1275.6640;-34.4000;-22.0100;-12.3900
1275.8630;-34.6300;-21.9100;-12.7200
1276.0620;-34.8800;-21.8100;-13.0700
1276.2610;-35.1300;-21.7100;-13.4200
1276.4600;-35.4000;-21.6200;-13.7800
1276.6590;-35.6500;-21.5100;-14.1400
1276.8580;-35.9300;-21.4200;-14.5100
1277.0580;-36.2200;-21.3400;-14.8800
1277.2570;-36.5100;-21.2300;-15.2800
1277.4560;-36.8000;-21.1600;-15.6400
1277.6550;-37.0700;-21.0600;-16.0100
1277.8540;-37.3600;-20.9700;-16.3900
1278.0530;-37.6200;-20.8800;-16.7400
1278.2520;-37.8600;-20.7900;-17.0700
1278.4510;-38.0900;-20.7200;-17.3700
1278.6500;-38.2900;-20.6200;-17.6700
1278.8500;-38.4000;-20.5300;-17.8700
1279.0490;-38.4600;-20.4400;-18.0200
1279.2480;-38.4600;-20.3500;-18.1100
1279.4470;-38.3900;-20.2800;-18.1100
1279.6460;-38.2500;-20.1800;-18.0700
1279.8450;-38.0600;-20.1000;-17.9600
1280.0440;-37.7800;-20.0100;-17.7700
1280.2430;-37.4700;-19.9100;-17.5600
1280.4430;-37.1000;-19.8400;-17.2600
1280.6420;-36.6900;-19.7500;-16.9400
1280.8410;-36.2700;-19.6700;-16.6000
1281.0400;-35.7400;-19.5800;-16.1600
1281.2390;-35.3600;-19.4900;-15.8700
1281.4380;-34.9000;-19.4200;-15.4800
1281.6370;-34.4400;-19.3300;-15.1100
1281.8360;-33.9700;-19.2600;-14.7100
1282.0350;-33.5100;-19.1700;-14.3400
1282.2350;-33.0800;-19.0900;-13.9900
1282.4340;-32.6300;-19.0100;-13.6200
1282.6330;-32.2100;-18.9400;-13.2700
1282.8320;-31.7800;-18.8700;-12.9100
1283.0310;-31.3700;-18.7800;-12.5900
1283.2300;-30.9700;-18.7100;-12.2600
1283.4290;-30.5800;-18.6400;-11.9400
1283.6280;-30.2000;-18.5600;-11.6400
1283.8270;-29.8300;-18.4900;-11.3400
1284.0270;-29.4700;-18.4100;-11.0600
1284.2260;-29.1200;-18.3400;-10.7800
1284.4250;-28.7800;-18.2700;-10.5100
1284.6240;-28.4600;-18.1900;-10.2700
1284.8230;-28.1300;-18.1300;-10.0000
1285.0220;-27.8200;-18.0400;-9.7800
1285.2210;-27.5200;-17.9700;-9.5500
1285.4200;-27.2300;-17.9000;-9.3300
1285.6200;-26.9600;-17.8300;-9.1300
1285.8190;-26.6800;-17.7700;-8.9100
1286.0180;-26.4200;-17.6900;-8.7300
1286.2170;-26.1600;-17.6200;-8.5400
1286.4160;-25.8700;-17.5400;-8.3300
1286.6150;-25.6800;-17.4800;-8.2000
1286.8140;-25.4400;-17.4300;-8.0100
1287.0130;-25.2200;-17.3500;-7.8700
1287.2120;-25.0000;-17.2900;-7.7100
1287.4120;-24.7900;-17.2200;-7.5700
1287.6110;-24.5900;-17.1500;-7.4400
1287.8100;-24.3900;-17.1000;-7.2900
1288.0090;-24.2100;-17.0200;-7.1900
1288.2080;-24.0100;-16.9700;-7.0400
1288.4070;-23.8500;-16.9000;-6.9500
1288.6060;-23.6700;-16.8400;-6.8300
1288.8050;-23.5000;-16.7900;-6.7100
1289.0040;-23.3500;-16.7200;-6.6300
1289.2040;-23.1900;-16.6700;-6.5200
1289.4030;-23.0600;-16.6000;-6.4600
1289.6020;-22.9100;-16.5400;-6.3700
1289.8010;-22.7800;-16.4900;-6.2900
1290.0000;-22.6600;-16.4200;-6.2400
1290.1990;-22.5300;-16.3800;-6.1500
1290.3980;-22.4200;-16.3100;-6.1100
1290.5970;-22.3100;-16.2700;-6.0400
1290.7970;-22.2100;-16.2100;-6.0000
1290.9960;-22.1000;-16.1400;-5.9600
1291.1950;-21.9900;-16.0900;-5.9000
1291.3940;-21.9200;-16.0400;-5.8800
1291.5930;-21.8100;-15.9800;-5.8300
1291.7920;-21.7400;-15.9200;-5.8200
1291.9910;-21.6600;-15.8700;-5.7900
1292.1900;-21.5900;-15.8100;-5.7800
1292.3890;-21.5400;-15.7600;-5.7800
1292.5890;-21.4600;-15.7100;-5.7500
1292.7880;-21.4100;-15.6500;-5.7600
1292.9870;-21.3600;-15.6200;-5.7400
1293.1860;-21.3100;-15.5600;-5.7500
1293.3850;-21.2900;-15.5100;-5.7800
1293.5840;-21.2400;-15.4500;-5.7900
1293.7830;-21.2300;-15.4000;-5.8300
1293.9820;-21.2000;-15.3700;-5.8300
1294.1810;-21.1800;-15.3100;-5.8700
1294.3810;-21.1800;-15.2700;-5.9100
1294.5800;-21.1600;-15.2200;-5.9400
1294.7790;-21.1700;-15.1700;-6.0000
1294.9780;-21.1700;-15.1300;-6.0400
1295.1770;-21.1900;-15.0800;-6.1100
1295.3760;-21.2000;-15.0400;-6.1600
1295.5750;-21.2200;-14.9800;-6.2400
1295.7740;-21.2600;-14.9300;-6.3300
1295.9740;-21.2700;-14.8900;-6.3800
1296.1730;-21.3200;-14.8400;-6.4800
1296.3720;-21.3600;-14.8100;-6.5500
1296.5710;-21.3900;-14.7500;-6.6400
1296.7700;-21.4600;-14.7100;-6.7500
1296.9690;-21.5200;-14.6700;-6.8500
1297.1680;-21.6000;-14.6300;-6.9700
1297.3670;-21.6600;-14.6000;-7.0600
1297.5660;-21.7300;-14.5400;-7.1900
1297.7660;-21.8200;-14.5000;-7.3200
1297.9650;-21.9100;-14.4700;-7.4400
1298.1640;-22.0300;-14.4300;-7.6000
1298.3630;-22.1300;-14.4100;-7.7200
1298.5620;-22.2400;-14.3500;-7.8900
1298.7610;-22.3600;-14.3300;-8.0300
1298.9600;-22.4900;-14.2900;-8.2000
1299.1590;-22.6500;-14.2500;-8.4000
1299.3580;-22.7900;-14.2300;-8.5600
1299.5580;-22.9500;-14.1800;-8.7700
1299.7570;-23.1100;-14.1500;-8.9600
1299.9560;-23.2900;-14.1200;-9.1700
1300.1550;-23.4900;-14.0900;-9.4000
1300.3540;-23.6800;-14.0600;-9.6200
1300.5530;-23.8900;-14.0100;-9.8800
1300.7520;-24.1000;-14.0000;-10.1000
1300.9510;-24.3300;-13.9600;-10.3700
1301.1500;-24.5800;-13.9400;-10.6400
1301.3500;-24.8300;-13.9100;-10.9200
1301.5490;-25.1200;-13.8900;-11.2300
1301.7480;-25.3900;-13.8800;-11.5100
1301.9470;-25.6900;-13.8400;-11.8500
1302.1460;-26.0000;-13.8300;-12.1700
1302.3450;-26.3200;-13.8100;-12.5100
1302.5440;-26.6900;-13.7900;-12.9000
1302.7430;-27.0400;-13.7800;-13.2600
1302.9430;-27.4200;-13.7500;-13.6700
1303.1420;-27.8200;-13.7500;-14.0700
1303.3410;-28.3400;-13.7200;-14.6200
1303.5400;-28.7000;-13.7100;-14.9900
1303.7390;-29.1500;-13.7100;-15.4400
1303.9380;-29.6400;-13.6800;-15.9600
1304.1370;-30.1400;-13.6800;-16.4600
1304.3360;-30.6600;-13.6600;-17.0000
1304.5350;-31.1800;-13.6500;-17.5300
1304.7350;-31.7000;-13.6400;-18.0600
1304.9340;-32.2100;-13.6300;-18.5800
1305.1330;-32.6900;-13.6300;-19.0600
1305.3320;-33.1300;-13.6000;-19.5300
1305.5310;-33.4700;-13.6100;-19.8600
1305.7300;-33.7300;-13.6000;-20.1300
1305.9290;-33.8500;-13.5800;-20.2700
1306.1280;-33.8500;-13.6000;-20.2500
1306.3270;-33.7100;-13.5800;-20.1300
1306.5270;-33.4400;-13.5900;-19.8500
1306.7260;-33.0700;-13.5900;-19.4800
1306.9250;-32.6100;-13.5800;-19.0300
1307.1240;-32.1200;-13.6000;-18.5200
1307.3230;-31.5900;-13.5900;-18.0000
1307.5220;-31.0500;-13.6100;-17.4400
1307.7210;-30.5000;-13.6100;-16.8900
1307.9200;-29.9600;-13.6100;-16.3500
1308.1200;-29.4300;-13.6300;-15.8000
1308.3190;-28.9300;-13.6300;-15.3000
1308.5180;-28.4300;-13.6500;-14.7800
1308.7170;-27.9600;-13.6500;-14.3100
1308.9160;-27.4900;-13.6500;-13.8400
1309.1150;-27.0600;-13.6800;-13.3800
1309.3140;-26.6400;-13.6900;-12.9500
1309.5130;-26.2400;-13.7200;-12.5200
