Wavelength;Intensity_Meas;Intensity_Ref;Difference_dB
1200.0000;-56.6400;-54.7600;-1.8800
1200.1990;-56.5600;-54.7300;-1.8300
1200.3980;-56.5400;-54.7000;-1.8400
1200.5970;-56.5900;-54.6700;-1.9200
1200.7970;-56.5900;-54.6400;-1.9500
1200.9960;-56.5500;-54.6100;-1.9400
1201.1950;-56.5300;-54.5600;-1.9700
1201.3940;-56.5300;-54.5300;-2.0000
1201.5930;-56.5300;-54.4900;-2.0400
1201.7920;-56.4900;-54.4200;-2.0700
1201.9910;-56.4700;-54.3800;-2.0900
1202.1900;-56.4200;-54.3300;-2.0900
1202.3890;-56.3700;-54.2800;-2.0900
1202.5890;-56.3700;-54.2200;-2.1500
1202.7880;-56.3300;-54.1600;-2.1700
1202.9870;-56.2400;-54.1200;-2.1200
1203.1860;-56.2100;-54.0600;-2.1500
1203.3850;-56.2000;-54.0100;-2.1900
1203.5840;-56.1700;-53.9700;-2.2000
1203.7830;-56.0600;-53.9100;-2.1500
1203.9820;-56.0300;-53.9000;-2.1300
1204.1810;-56.0200;-53.8400;-2.1800
1204.3810;-55.9600;-53.8000;-2.1600
1204.5800;-55.9000;-53.7700;-2.1300
1204.7790;-55.8600;-53.7300;-2.1300
1204.9780;-55.8600;-53.7100;-2.1500
1205.1770;-55.8300;-53.6600;-2.1700
1205.3760;-55.7600;-53.6500;-2.1100
1205.5750;-55.7500;-53.6300;-2.1200
1205.7740;-55.7400;-53.6000;-2.1400
1205.9740;-55.7300;-53.5900;-2.1400
1206.1730;-55.6900;-53.5600;-2.1300
1206.3720;-55.6600;-53.5400;-2.1200
1206.5710;-55.6900;-53.5200;-2.1700
1206.7700;-55.6600;-53.4900;-2.1700
1206.9690;-55.6200;-53.4600;-2.1600
1207.1680;-55.6000;-53.4200;-2.1800
1207.3670;-55.5700;-53.4000;-2.1700
1207.5660;-55.5800;-53.3700;-2.2100
1207.7660;-55.5400;-53.3200;-2.2200
1207.9650;-55.5000;-53.3000;-2.2000
1208.1640;-55.4600;-53.2500;-2.2100
1208.3630;-55.4400;-53.1900;-2.2500
1208.5620;-55.4200;-53.1500;-2.2700
1208.7610;-55.3300;-53.1100;-2.2200
1208.9600;-55.2700;-53.0500;-2.2200
1209.1590;-55.2600;-52.9800;-2.2800
1209.3580;-55.2100;-52.9300;-2.2800
1209.5580;-55.1100;-52.8900;-2.2200
1209.7570;-55.0500;-52.8200;-2.2300
1209.9560;-55.0200;-52.7700;-2.2500
1210.1550;-54.9600;-52.7100;-2.2500
1210.3540;-54.8600;-52.6500;-2.2100
1210.5530;-54.8200;-52.6200;-2.2000
1210.7520;-54.7800;-52.5600;-2.2200
1210.9510;-54.7100;-52.5200;-2.1900
1211.1500;-54.6600;-52.4600;-2.2000
1211.3500;-54.5900;-52.4100;-2.1800
1211.5490;-54.5600;-52.3900;-2.1700
1211.7480;-54.5100;-52.3300;-2.1800
1211.9470;-54.4600;-52.3000;-2.1600
1212.1460;-54.4000;-52.2600;-2.1400
1212.3450;-54.3500;-52.2200;-2.1300
1212.5440;-54.3400;-52.2100;-2.1300
1212.7430;-54.2800;-52.1700;-2.1100
1212.9430;-54.2000;-52.1400;-2.0600
1213.1420;-54.1800;-52.1000;-2.0800
1213.3410;-54.1600;-52.0700;-2.0900
1213.5400;-54.1100;-52.0500;-2.0600
1213.7390;-54.0300;-52.0000;-2.0300
1213.9380;-54.0000;-51.9800;-2.0200
1214.1370;-53.9600;-51.9300;-2.0300
1214.3360;-53.8800;-51.8800;-2.0000
1214.5350;-53.8400;-51.8600;-1.9800
1214.7350;-53.7800;-51.8100;-1.9700
1214.9340;-53.7200;-51.7600;-1.9600
1215.1330;-53.6700;-51.7000;-1.9700
1215.3320;-53.5800;-51.6400;-1.9400
1215.5310;-53.5200;-51.6100;-1.9100
1215.7300;-53.4500;-51.5400;-1.9100
1215.9290;-53.3900;-51.4900;-1.9000
1216.1280;-53.3100;-51.4200;-1.8900
1216.3270;-53.2200;-51.3600;-1.8600
1216.5270;-53.2000;-51.3100;-1.8900
1216.7260;-53.1100;-51.2400;-1.8700
1216.9250;-53.0100;-51.1800;-1.8300
1217.1240;-52.9500;-51.1100;-1.8400
1217.3230;-52.9000;-51.0500;-1.8500
1217.5220;-52.8400;-51.0100;-1.8300
1217.7210;-52.7400;-50.9400;-1.8000
1217.9200;-52.6800;-50.9000;-1.7800
1218.1200;-52.6300;-50.8300;-1.8000
1218.3190;-52.5700;-50.7900;-1.7800
1218.5180;-52.5200;-50.7500;-1.7700
1218.7170;-52.4600;-50.7000;-1.7600
1218.9160;-52.4000;-50.6700;-1.7300
1219.1150;-52.3600;-50.6100;-1.7500
1219.3140;-52.3000;-50.5700;-1.7300
1219.5130;-52.2600;-50.5400;-1.7200
1219.7120;-52.2200;-50.5100;-1.7100
1219.9120;-52.1700;-50.4700;-1.7000
1220.1110;-52.1300;-50.4200;-1.7100
1220.3100;-52.0700;-50.3800;-1.6900
1220.5090;-52.0500;-50.3400;-1.7100
1220.7080;-51.9900;-50.2900;-1.7000
1220.9070;-51.9300;-50.2600;-1.6700
1221.1060;-51.8800;-50.2000;-1.6800
1221.3050;-51.8400;-50.1400;-1.7000
1221.5040;-51.7800;-50.0900;-1.6900
1221.7040;-51.7100;-50.0200;-1.6900
1221.9030;-51.6500;-49.9700;-1.6800
1222.1020;-51.5900;-49.8900;-1.7000
1222.3010;-51.5200;-49.8300;-1.6900
1222.5000;-51.4400;-49.7600;-1.6800
1222.6990;-51.3600;-49.6900;-1.6700
1222.8980;-51.2900;-49.6300;-1.6600
1223.0970;-51.2100;-49.5400;-1.6700
1223.2970;-51.1100;-49.4700;-1.6400
1223.4960;-51.0300;-49.3900;-1.6400
1223.6950;-50.9400;-49.3100;-1.6300
1223.8940;-50.8500;-49.2500;-1.6000
1224.0930;-50.7600;-49.1700;-1.5900
1224.2920;-50.6700;-49.1000;-1.5700
1224.4910;-50.5900;-49.0300;-1.5600
1224.6900;-50.5000;-48.9600;-1.5400
1224.8890;-50.4000;-48.9100;-1.4900
1225.0890;-50.3300;-48.8400;-1.4900
1225.2880;-50.2400;-48.7700;-1.4700
1225.4870;-50.1600;-48.7200;-1.4400
1225.6860;-50.0800;-48.6600;-1.4200
1225.8850;-50.0100;-48.6200;-1.3900
1226.0840;-49.9400;-48.5500;-1.3900
1226.2830;-49.8700;-48.5000;-1.3700
1226.4820;-49.8000;-48.4400;-1.3600
1226.6810;-49.7300;-48.3800;-1.3500
1226.8810;-49.6700;-48.3400;-1.3300
1227.0800;-49.6000;-48.2700;-1.3300
1227.2790;-49.5300;-48.2200;-1.3100
1227.4780;-49.4700;-48.1600;-1.3100
1227.6770;-49.4000;-48.1000;-1.3000
1227.8760;-49.3400;-48.0400;-1.3000
1228.0750;-49.2700;-47.9600;-1.3100
1228.2740;-49.1900;-47.8900;-1.3000
1228.4740;-49.1200;-47.8300;-1.2900
1228.6730;-49.0300;-47.7500;-1.2800
1228.8720;-48.9400;-47.6800;-1.2600
1229.0710;-48.8600;-47.5900;-1.2700
1229.2700;-48.7700;-47.5100;-1.2600
1229.4690;-48.6800;-47.4300;-1.2500
1229.6680;-48.5800;-47.3500;-1.2300
1229.8670;-48.4700;-47.2700;-1.2000
1230.0660;-48.3800;-47.1800;-1.2000
1230.2660;-48.2700;-47.0900;-1.1800
1230.4650;-48.1600;-47.0100;-1.1500
1230.6640;-48.0600;-46.9200;-1.1400
1230.8630;-47.9700;-46.8600;-1.1100
1231.0620;-47.8800;-46.7700;-1.1100
1231.2610;-47.7900;-46.7100;-1.0800
1231.4600;-47.7200;-46.6500;-1.0700
1231.6590;-47.6300;-46.5700;-1.0600
1231.8580;-47.5400;-46.5100;-1.0300
1232.0580;-47.4800;-46.4400;-1.0400
1232.2570;-47.3900;-46.3800;-1.0100
1232.4560;-47.3400;-46.3300;-1.0100
1232.6550;-47.2600;-46.2600;-1.0000
1232.8540;-47.1900;-46.2000;-0.9900
1233.0530;-47.1400;-46.1400;-1.0000
1233.2520;-47.0700;-46.0700;-1.0000
1233.4510;-47.0100;-46.0100;-1.0000
1233.6500;-46.9500;-45.9400;-1.0100
1233.8500;-46.8900;-45.8900;-1.0000
1234.0490;-46.8400;-45.8000;-1.0400
1234.2480;-46.7600;-45.7500;-1.0100
1234.4470;-46.7100;-45.6600;-1.0500
1234.6460;-46.6500;-45.6000;-1.0500
1234.8450;-46.5900;-45.5200;-1.0700
1235.0440;-46.5200;-45.4400;-1.0800
1235.2430;-46.4500;-45.3800;-1.0700
1235.4430;-46.3900;-45.2700;-1.1200
1235.6420;-46.3200;-45.2000;-1.1200
1235.8410;-46.2600;-45.1000;-1.1600
1236.0400;-46.2000;-45.0100;-1.1900
1236.2390;-46.1300;-44.9200;-1.2100
1236.4380;-46.0700;-44.8100;-1.2600
1236.6370;-46.0200;-44.7300;-1.2900
1236.8360;-45.9700;-44.6400;-1.3300
1237.0350;-45.9200;-44.5500;-1.3700
1237.2350;-45.8700;-44.4700;-1.4000
1237.4340;-45.8300;-44.3600;-1.4700
1237.6330;-45.8100;-44.2900;-1.5200
1237.8320;-45.7800;-44.2100;-1.5700
1238.0310;-45.7500;-44.1100;-1.6400
1238.2300;-45.7500;-44.0500;-1.7000
1238.4290;-45.7100;-43.9500;-1.7600
1238.6280;-45.7000;-43.8800;-1.8200
1238.8270;-45.6900;-43.7900;-1.9000
1239.0270;-45.6700;-43.7200;-1.9500
1239.2260;-45.6700;-43.6500;-2.0200
1239.4250;-45.6400;-43.5500;-2.0900
1239.6240;-45.6300;-43.4800;-2.1500
1239.8230;-45.6100;-43.3900;-2.2200
1240.0220;-45.5900;-43.3100;-2.2800
1240.2210;-45.5800;-43.2300;-2.3500
1240.4200;-45.5400;-43.1300;-2.4100
1240.6200;-45.5200;-43.0500;-2.4700
1240.8190;-45.4900;-42.9400;-2.5500
1241.0180;-45.4400;-42.8300;-2.6100
1241.2170;-45.4200;-42.7300;-2.6900
1241.4160;-45.3700;-42.6200;-2.7500
1241.6150;-45.3300;-42.5000;-2.8300
1241.8140;-45.2900;-42.3900;-2.9000
1242.0130;-45.2600;-42.2700;-2.9900
1242.2120;-45.2400;-42.1700;-3.0700
1242.4120;-45.1900;-42.0400;-3.1500
1242.6110;-45.1600;-41.9300;-3.2300
1242.8100;-45.1300;-41.8000;-3.3300
1243.0090;-45.0900;-41.6800;-3.4100
1243.2080;-45.0800;-41.5700;-3.5100
1243.4070;-45.0500;-41.4500;-3.6000
1243.6060;-45.0300;-41.3300;-3.7000
1243.8050;-45.0100;-41.2100;-3.8000
1244.0040;-44.9800;-41.0900;-3.8900
1244.2040;-44.9800;-40.9900;-3.9900
1244.4030;-44.9500;-40.8700;-4.0800
1244.6020;-44.9300;-40.7600;-4.1700
1244.8010;-44.9200;-40.6400;-4.2800
1245.0000;-44.8900;-40.5300;-4.3600
1245.1990;-44.8900;-40.4300;-4.4600
1245.3980;-44.8500;-40.3100;-4.5400
1245.5970;-44.8100;-40.2000;-4.6100
1245.7970;-44.7700;-40.0800;-4.6900
1245.9960;-44.7100;-39.9600;-4.7500
1246.1950;-44.6700;-39.8600;-4.8100
1246.3940;-44.6000;-39.7300;-4.8700
1246.5930;-44.5200;-39.6000;-4.9200
1246.7920;-44.4500;-39.4800;-4.9700
1246.9910;-44.3400;-39.3400;-5.0000
1247.1900;-44.2600;-39.2300;-5.0300
1247.3890;-44.1500;-39.0900;-5.0600
1247.5890;-44.0300;-38.9600;-5.0700
1247.7880;-43.9200;-38.8200;-5.1000
1247.9870;-43.7800;-38.6800;-5.1000
1248.1860;-43.6600;-38.5600;-5.1000
1248.3850;-43.5100;-38.4100;-5.1000
1248.5840;-43.3700;-38.2800;-5.0900
1248.7830;-43.2200;-38.1400;-5.0800
1248.9820;-43.0800;-38.0100;-5.0700
1249.1810;-42.9500;-37.8800;-5.0700
1249.3810;-42.7900;-37.7400;-5.0500
1249.5800;-42.6300;-37.6100;-5.0200
1249.7790;-42.4900;-37.4700;-5.0200
1249.9780;-42.3300;-37.3300;-5.0000
1250.1770;-42.1900;-37.2200;-4.9700
1250.3760;-42.0400;-37.0800;-4.9600
1250.5750;-41.8800;-36.9500;-4.9300
1250.7740;-41.7400;-36.8200;-4.9200
1250.9740;-41.6000;-36.7000;-4.9000
1251.1730;-41.4700;-36.5800;-4.8900
1251.3720;-41.3100;-36.4400;-4.8700
1251.5710;-41.1700;-36.3400;-4.8300
1251.7700;-41.0200;-36.2000;-4.8200
1251.9690;-40.8600;-36.0700;-4.7900
1252.1680;-40.7200;-35.9400;-4.7800
1252.3670;-40.5500;-35.7800;-4.7700
1252.5660;-40.4100;-35.6800;-4.7300
1252.7660;-40.2400;-35.5400;-4.7000
1252.9650;-40.0800;-35.4300;-4.6500
1253.1640;-39.9200;-35.2800;-4.6400
1253.3630;-39.7400;-35.1400;-4.6000
1253.5620;-39.5900;-35.0200;-4.5700
1253.7610;-39.4100;-34.8800;-4.5300
1253.9600;-39.2400;-34.7600;-4.4800
1254.1590;-39.0800;-34.6100;-4.4700
1254.3580;-38.9000;-34.4800;-4.4200
1254.5580;-38.7500;-34.3500;-4.4000
1254.7570;-38.5800;-34.2100;-4.3700
1254.9560;-38.4100;-34.0800;-4.3300
1255.1550;-38.2700;-33.9500;-4.3200
1255.3540;-38.1100;-33.8200;-4.2900
1255.5530;-37.9800;-33.7000;-4.2800
1255.7520;-37.8300;-33.5700;-4.2600
1255.9510;-37.6900;-33.4500;-4.2400
1256.1500;-37.5700;-33.3100;-4.2600
1256.3500;-37.4300;-33.1900;-4.2400
1256.5490;-37.3200;-33.0700;-4.2500
1256.7480;-37.1800;-32.9400;-4.2400
1256.9470;-37.0600;-32.8200;-4.2400
1257.1460;-36.9400;-32.6900;-4.2500
1257.3450;-36.8200;-32.5600;-4.2600
1257.5440;-36.7300;-32.4400;-4.2900
1257.7430;-36.6100;-32.3100;-4.3000
1257.9430;-36.5000;-32.1900;-4.3100
1258.1420;-36.4000;-32.0600;-4.3400
1258.3410;-36.2800;-31.9400;-4.3400
1258.5400;-36.2000;-31.8100;-4.3900
1258.7390;-36.0800;-31.6800;-4.4000
1258.9380;-35.9900;-31.5500;-4.4400
1259.1370;-35.8700;-31.4200;-4.4500
1259.3360;-35.8000;-31.3000;-4.5000
1259.5350;-35.7100;-31.1700;-4.5400
1259.7350;-35.6100;-31.0400;-4.5700
1259.9340;-35.5300;-30.9100;-4.6200
1260.1330;-35.4500;-30.7800;-4.6700
1260.3320;-35.3800;-30.6600;-4.7200
1260.5310;-35.3000;-30.5300;-4.7700
1260.7300;-35.2300;-30.4100;-4.8200
1260.9290;-35.1700;-30.2900;-4.8800
1261.1280;-35.1000;-30.1500;-4.9500
1261.3270;-35.0600;-30.0400;-5.0200
1261.5270;-35.0000;-29.9200;-5.0800
1261.7260;-34.9500;-29.8000;-5.1500
1261.9250;-34.9100;-29.6800;-5.2300
1262.1240;-34.8700;-29.5500;-5.3200
1262.3230;-34.8400;-29.4400;-5.4000
1262.5220;-34.8000;-29.3200;-5.4800
1262.7210;-34.7700;-29.2000;-5.5700
1262.9200;-34.7500;-29.0800;-5.6700
1263.1200;-34.7100;-28.9600;-5.7500
1263.3190;-34.7000;-28.8400;-5.8600
1263.5180;-34.6800;-28.7200;-5.9600
1263.7170;-34.6500;-28.6000;-6.0500
1263.9160;-34.6300;-28.4800;-6.1500
1264.1150;-34.6100;-28.3500;-6.2600
1264.3140;-34.6100;-28.2400;-6.3700
1264.5130;-34.6000;-28.1100;-6.4900
1264.7120;-34.5900;-27.9900;-6.6000
1264.9120;-34.5900;-27.8600;-6.7300
1265.1110;-34.5800;-27.7400;-6.8400
1265.3100;-34.6000;-27.6200;-6.9800
1265.5090;-34.6100;-27.4900;-7.1200
1265.7080;-34.6200;-27.3800;-7.2400
1265.9070;-34.6500;-27.2600;-7.3900
1266.1060;-34.6700;-27.1300;-7.5400
1266.3050;-34.7100;-27.0300;-7.6800
1266.5040;-34.7500;-26.9100;-7.8400
1266.7040;-34.7900;-26.8000;-7.9900
1266.9030;-34.8400;-26.6800;-8.1600
1267.1020;-34.8900;-26.5700;-8.3200
1267.3010;-34.9600;-26.4700;-8.4900
1267.5000;-35.0100;-26.3500;-8.6600
1267.6990;-35.0800;-26.2500;-8.8300
1267.8980;-35.1400;-26.1300;-9.0100
1268.0970;-35.2200;-26.0200;-9.2000
1268.2970;-35.2900;-25.9100;-9.3800
1268.4960;-35.3700;-25.8200;-9.5500
1268.6950;-35.4400;-25.7100;-9.7300
1268.8940;-35.5100;-25.5900;-9.9200
1269.0930;-35.5700;-25.4900;-10.0800
1269.2920;-35.6500;-25.3700;-10.2800
1269.4910;-35.7000;-25.2600;-10.4400
1269.6900;-35.7700;-25.1500;-10.6200
1269.8890;-35.8200;-25.0300;-10.7900
1270.0890;-35.8700;-24.9300;-10.9400
1270.2880;-35.9200;-24.8000;-11.1200
1270.4870;-35.9700;-24.7000;-11.2700
1270.6860;-36.0100;-24.5900;-11.4200
1270.8850;-36.0400;-24.4700;-11.5700
1271.0840;-36.0600;-24.3700;-11.6900
1271.2830;-36.1000;-24.2600;-11.8400
1271.4820;-36.1000;-24.1500;-11.9500
1271.6810;-36.1200;-24.0500;-12.0700
1271.8810;-36.1200;-23.9400;-12.1800
1272.0800;-36.1100;-23.8500;-12.2600
1272.2790;-36.1100;-23.7300;-12.3800
1272.4780;-36.0700;-23.6400;-12.4300
1272.6770;-36.0600;-23.5400;-12.5200
1272.8760;-36.0000;-23.4300;-12.5700
1273.0750;-35.9500;-23.3400;-12.6100
1273.2740;-35.8900;-23.2300;-12.6600
1273.4740;-35.8100;-23.1300;-12.6800
1273.6730;-35.7400;-23.0300;-12.7100
1273.8720;-35.6300;-22.9300;-12.7000
1274.0710;-35.5100;-22.8400;-12.6700
1274.2700;-35.3900;-22.7300;-12.6600
1274.4690;-35.2400;-22.6300;-12.6100
1274.6680;-35.1100;-22.5200;-12.5900
1274.8670;-34.9400;-22.4100;-12.5300
1275.0660;-34.7700;-22.3200;-12.4500
1275.2660;-34.5800;-22.2000;-12.3800
1275.4650;-34.3800;-22.1100;-12.2700
1275.6640;-34.2000;-22.0100;-12.1900
1275.8630;-33.9800;-21.9100;-12.0700
1276.0620;-33.7800;-21.8100;-11.9700
1276.2610;-33.5500;-21.7100;-11.8400
1276.4600;-33.3300;-21.6200;-11.7100
1276.6590;-33.1100;-21.5100;-11.6000
1276.8580;-32.8700;-21.4200;-11.4500
1277.0580;-32.6600;-21.3400;-11.3200
1277.2570;-32.4300;-21.2300;-11.2000
1277.4560;-32.2100;-21.1600;-11.0500
1277.6550;-32.0000;-21.0600;-10.9400
1277.8540;-31.7700;-20.9700;-10.8000
1278.0530;-31.5700;-20.8800;-10.6900
1278.2520;-31.3500;-20.7900;-10.5600
1278.4510;-31.1500;-20.7200;-10.4300
1278.6500;-30.9400;-20.6200;-10.3200
1278.8500;-30.7300;-20.5300;-10.2000
1279.0490;-30.5400;-20.4400;-10.1000
1279.2480;-30.3300;-20.3500;-9.9800
1279.4470;-30.1500;-20.2800;-9.8700
1279.6460;-29.9500;-20.1800;-9.7700
1279.8450;-29.7600;-20.1000;-9.6600
1280.0440;-29.5800;-20.0100;-9.5700
1280.2430;-29.3800;-19.9100;-9.4700
1280.4430;-29.2100;-19.8400;-9.3700
1280.6420;-29.0200;-19.7500;-9.2700
1280.8410;-28.8400;-19.6700;-9.1700
1281.0400;-28.6700;-19.5800;-9.0900
1281.2390;-28.4900;-19.4900;-9.0000
1281.4380;-28.3300;-19.4200;-8.9100
1281.6370;-28.1500;-19.3300;-8.8200
1281.8360;-27.9800;-19.2600;-8.7200
1282.0350;-27.8300;-19.1700;-8.6600
1282.2350;-27.6700;-19.0900;-8.5800
1282.4340;-27.5200;-19.0100;-8.5100
1282.6330;-27.3700;-18.9400;-8.4300
1282.8320;-27.2300;-18.8700;-8.3600
1283.0310;-27.0900;-18.7800;-8.3100
1283.2300;-26.9500;-18.7100;-8.2400
1283.4290;-26.8300;-18.6400;-8.1900
1283.6280;-26.6800;-18.5600;-8.1200
1283.8270;-26.5600;-18.4900;-8.0700
1284.0270;-26.4400;-18.4100;-8.0300
1284.2260;-26.3200;-18.3400;-7.9800
1284.4250;-26.2200;-18.2700;-7.9500
1284.6240;-26.0800;-18.1900;-7.8900
1284.8230;-26.0000;-18.1300;-7.8700
1285.0220;-25.8900;-18.0400;-7.8500
1285.2210;-25.7900;-17.9700;-7.8200
1285.4200;-25.6900;-17.9000;-7.7900
1285.6200;-25.6000;-17.8300;-7.7700
1285.8190;-25.5200;-17.7700;-7.7500
1286.0180;-25.4300;-17.6900;-7.7400
1286.2170;-25.3500;-17.6200;-7.7300
1286.4160;-25.2700;-17.5400;-7.7300
1286.6150;-25.2000;-17.4800;-7.7200
1286.8140;-25.1400;-17.4300;-7.7100
1287.0130;-25.0700;-17.3500;-7.7200
1287.2120;-25.0200;-17.2900;-7.7300
1287.4120;-24.9500;-17.2200;-7.7300
1287.6110;-24.8900;-17.1500;-7.7400
1287.8100;-24.8600;-17.1000;-7.7600
1288.0090;-24.8100;-17.0200;-7.7900
1288.2080;-24.7800;-16.9700;-7.8100
1288.4070;-24.7400;-16.9000;-7.8400
1288.6060;-24.7100;-16.8400;-7.8700
1288.8050;-24.6900;-16.7900;-7.9000
1289.0040;-24.6700;-16.7200;-7.9500
1289.2040;-24.6600;-16.6700;-7.9900
1289.4030;-24.6400;-16.6000;-8.0400
1289.6020;-24.6300;-16.5400;-8.0900
1289.8010;-24.6400;-16.4900;-8.1500
1290.0000;-24.6300;-16.4200;-8.2100
1290.1990;-24.6500;-16.3800;-8.2700
1290.3980;-24.6500;-16.3100;-8.3400
1290.5970;-24.6700;-16.2700;-8.4000
1290.7970;-24.6900;-16.2100;-8.4800
1290.9960;-24.7000;-16.1400;-8.5600
1291.1950;-24.7400;-16.0900;-8.6500
1291.3940;-24.7600;-16.0400;-8.7200
1291.5930;-24.7900;-15.9800;-8.8100
1291.7920;-24.8300;-15.9200;-8.9100
1291.9910;-24.8700;-15.8700;-9.0000
1292.1900;-24.9400;-15.8100;-9.1300
1292.3890;-24.9900;-15.7600;-9.2300
1292.5890;-25.0500;-15.7100;-9.3400
1292.7880;-25.1100;-15.6500;-9.4600
1292.9870;-25.1800;-15.6200;-9.5600
1293.1860;-25.2600;-15.5600;-9.7000
1293.3850;-25.3400;-15.5100;-9.8300
1293.5840;-25.4300;-15.4500;-9.9800
1293.7830;-25.5100;-15.4000;-10.1100
1293.9820;-25.6100;-15.3700;-10.2400
1294.1810;-25.7100;-15.3100;-10.4000
1294.3810;-25.8200;-15.2700;-10.5500
1294.5800;-25.9300;-15.2200;-10.7100
1294.7790;-26.0300;-15.1700;-10.8600
1294.9780;-26.1600;-15.1300;-11.0300
1295.1770;-26.2800;-15.0800;-11.2000
1295.3760;-26.4100;-15.0400;-11.3700
1295.5750;-26.5400;-14.9800;-11.5600
1295.7740;-26.6600;-14.9300;-11.7300
1295.9740;-26.8000;-14.8900;-11.9100
1296.1730;-26.9300;-14.8400;-12.0900
1296.3720;-27.0700;-14.8100;-12.2600
1296.5710;-27.2100;-14.7500;-12.4600
1296.7700;-27.3500;-14.7100;-12.6400
1296.9690;-27.5000;-14.6700;-12.8300
1297.1680;-27.6300;-14.6300;-13.0000
1297.3670;-27.7700;-14.6000;-13.1700
1297.5660;-27.9000;-14.5400;-13.3600
1297.7660;-28.0200;-14.5000;-13.5200
1297.9650;-28.1900;-14.4700;-13.7200
1298.1640;-28.2800;-14.4300;-13.8500
1298.3630;-28.4100;-14.4100;-14.0000
1298.5620;-28.4900;-14.3500;-14.1400
1298.7610;-28.6000;-14.3300;-14.2700
1298.9600;-28.6700;-14.2900;-14.3800
1299.1590;-28.7400;-14.2500;-14.4900
1299.3580;-28.8000;-14.2300;-14.5700
1299.5580;-28.8200;-14.1800;-14.6400
1299.7570;-28.8600;-14.1500;-14.7100
1299.9560;-28.8500;-14.1200;-14.7300
1300.1550;-28.8400;-14.0900;-14.7500
1300.3540;-28.8100;-14.0600;-14.7500
1300.5530;-28.7400;-14.0100;-14.7300
1300.7520;-28.6900;-14.0000;-14.6900
1300.9510;-28.5900;-13.9600;-14.6300
1301.1500;-28.5000;-13.9400;-14.5600
1301.3500;-28.3700;-13.9100;-14.4600
1301.5490;-28.2400;-13.8900;-14.3500
1301.7480;-28.1000;-13.8800;-14.2200
1301.9470;-27.9300;-13.8400;-14.0900
1302.1460;-27.7700;-13.8300;-13.9400
1302.3450;-27.5800;-13.8100;-13.7700
1302.5440;-27.4000;-13.7900;-13.6100
1302.7430;-27.2100;-13.7800;-13.4300
1302.9430;-27.0000;-13.7500;-13.2500
1303.1420;-26.8100;-13.7500;-13.0600
1303.3410;-26.5900;-13.7200;-12.8700
1303.5400;-26.3900;-13.7100;-12.6800
1303.7390;-26.1800;-13.7100;-12.4700
1303.9380;-25.9300;-13.6800;-12.2500
1304.1370;-25.7700;-13.6800;-12.0900
1304.3360;-25.5500;-13.6600;-11.8900
1304.5350;-25.3700;-13.6500;-11.7200
1304.7350;-25.1600;-13.6400;-11.5200
1304.9340;-24.9500;-13.6300;-11.3200
1305.1330;-24.7700;-13.6300;-11.1400
1305.3320;-24.5700;-13.6000;-10.9700
1305.5310;-24.4000;-13.6100;-10.7900
1305.7300;-24.2100;-13.6000;-10.6100
1305.9290;-24.0400;-13.5800;-10.4600
1306.1280;-23.8700;-13.6000;-10.2700
1306.3270;-23.7000;-13.5800;-10.1200
1306.5270;-23.5500;-13.5900;-9.9600
1306.7260;-23.3800;-13.5900;-9.7900
1306.9250;-23.2400;-13.5800;-9.6600
1307.1240;-23.0900;-13.6000;-9.4900
1307.3230;-22.9400;-13.5900;-9.3500
1307.5220;-22.8200;-13.6100;-9.2100
1307.7210;-22.6800;-13.6100;-9.0700
1307.9200;-22.5600;-13.6100;-8.9500
1308.1200;-22.4300;-13.6300;-8.8000
1308.3190;-22.3100;-13.6300;-8.6800
1308.5180;-22.2100;-13.6500;-8.5600
1308.7170;-22.0900;-13.6500;-8.4400
1308.9160;-22.0000;-13.6500;-8.3500
1309.1150;-21.8900;-13.6800;-8.2100
1309.3140;-21.8000;-13.6900;-8.1100
