Wavelength;Intensity_Meas;Intensity_Ref;Difference_dB
1200.0000;-56.9200;-54.7600;-2.1600
1200.1990;-56.8200;-54.7300;-2.0900
1200.3980;-56.7600;-54.7000;-2.0600
1200.5970;-56.8000;-54.6700;-2.1300
1200.7970;-56.7700;-54.6400;-2.1300
1200.9960;-56.7200;-54.6100;-2.1100
1201.1950;-56.6500;-54.5600;-2.0900
1201.3940;-56.6300;-54.5300;-2.1000
1201.5930;-56.6100;-54.4900;-2.1200
1201.7920;-56.5400;-54.4200;-2.1200
1201.9910;-56.5000;-54.3800;-2.1200
1202.1900;-56.4200;-54.3300;-2.0900
1202.3890;-56.3600;-54.2800;-2.0800
1202.5890;-56.3400;-54.2200;-2.1200
1202.7880;-56.2600;-54.1600;-2.1000
1202.9870;-56.1700;-54.1200;-2.0500
1203.1860;-56.1000;-54.0600;-2.0400
1203.3850;-56.0700;-54.0100;-2.0600
1203.5840;-56.0200;-53.9700;-2.0500
1203.7830;-55.9000;-53.9100;-1.9900
1203.9820;-55.8700;-53.9000;-1.9700
1204.1810;-55.8300;-53.8400;-1.9900
1204.3810;-55.7600;-53.8000;-1.9600
1204.5800;-55.6900;-53.7700;-1.9200
1204.7790;-55.6400;-53.7300;-1.9100
1204.9780;-55.6200;-53.7100;-1.9100
1205.1770;-55.5700;-53.6600;-1.9100
1205.3760;-55.5000;-53.6500;-1.8500
1205.5750;-55.4800;-53.6300;-1.8500
1205.7740;-55.4700;-53.6000;-1.8700
1205.9740;-55.4500;-53.5900;-1.8600
1206.1730;-55.3900;-53.5600;-1.8300
1206.3720;-55.3400;-53.5400;-1.8000
1206.5710;-55.3600;-53.5200;-1.8400
1206.7700;-55.3300;-53.4900;-1.8400
1206.9690;-55.2900;-53.4600;-1.8300
1207.1680;-55.2500;-53.4200;-1.8300
1207.3670;-55.2200;-53.4000;-1.8200
1207.5660;-55.2200;-53.3700;-1.8500
1207.7660;-55.1700;-53.3200;-1.8500
1207.9650;-55.1200;-53.3000;-1.8200
1208.1640;-55.0800;-53.2500;-1.8300
1208.3630;-55.0600;-53.1900;-1.8700
1208.5620;-55.0400;-53.1500;-1.8900
1208.7610;-54.9400;-53.1100;-1.8300
1208.9600;-54.8800;-53.0500;-1.8300
1209.1590;-54.8700;-52.9800;-1.8900
1209.3580;-54.8000;-52.9300;-1.8700
1209.5580;-54.7300;-52.8900;-1.8400
1209.7570;-54.6700;-52.8200;-1.8500
1209.9560;-54.6500;-52.7700;-1.8800
1210.1550;-54.5900;-52.7100;-1.8800
1210.3540;-54.5100;-52.6500;-1.8600
1210.5530;-54.4900;-52.6200;-1.8700
1210.7520;-54.4500;-52.5600;-1.8900
1210.9510;-54.3900;-52.5200;-1.8700
1211.1500;-54.3500;-52.4600;-1.8900
1211.3500;-54.3000;-52.4100;-1.8900
1211.5490;-54.2800;-52.3900;-1.8900
1211.7480;-54.2500;-52.3300;-1.9200
1211.9470;-54.2200;-52.3000;-1.9200
1212.1460;-54.1700;-52.2600;-1.9100
1212.3450;-54.1400;-52.2200;-1.9200
1212.5440;-54.1600;-52.2100;-1.9500
1212.7430;-54.1100;-52.1700;-1.9400
1212.9430;-54.0600;-52.1400;-1.9200
1213.1420;-54.0500;-52.1000;-1.9500
1213.3410;-54.0500;-52.0700;-1.9800
1213.5400;-54.0100;-52.0500;-1.9600
1213.7390;-53.9600;-52.0000;-1.9600
1213.9380;-53.9500;-51.9800;-1.9700
1214.1370;-53.9300;-51.9300;-2.0000
1214.3360;-53.8600;-51.8800;-1.9800
1214.5350;-53.8400;-51.8600;-1.9800
1214.7350;-53.8000;-51.8100;-1.9900
1214.9340;-53.7500;-51.7600;-1.9900
1215.1330;-53.7100;-51.7000;-2.0100
1215.3320;-53.6400;-51.6400;-2.0000
1215.5310;-53.6100;-51.6100;-2.0000
1215.7300;-53.5500;-51.5400;-2.0100
1215.9290;-53.4900;-51.4900;-2.0000
1216.1280;-53.4200;-51.4200;-2.0000
1216.3270;-53.3400;-51.3600;-1.9800
1216.5270;-53.3200;-51.3100;-2.0100
1216.7260;-53.2500;-51.2400;-2.0100
1216.9250;-53.1700;-51.1800;-1.9900
1217.1240;-53.1200;-51.1100;-2.0100
1217.3230;-53.0700;-51.0500;-2.0200
1217.5220;-53.0300;-51.0100;-2.0200
1217.7210;-52.9400;-50.9400;-2.0000
1217.9200;-52.9000;-50.9000;-2.0000
1218.1200;-52.8500;-50.8300;-2.0200
1218.3190;-52.8000;-50.7900;-2.0100
1218.5180;-52.7700;-50.7500;-2.0200
1218.7170;-52.7100;-50.7000;-2.0100
1218.9160;-52.6700;-50.6700;-2.0000
1219.1150;-52.6300;-50.6100;-2.0200
1219.3140;-52.5800;-50.5700;-2.0100
1219.5130;-52.5600;-50.5400;-2.0200
1219.7120;-52.5200;-50.5100;-2.0100
1219.9120;-52.4900;-50.4700;-2.0200
1220.1110;-52.4300;-50.4200;-2.0100
1220.3100;-52.3800;-50.3800;-2.0000
1220.5090;-52.3700;-50.3400;-2.0300
1220.7080;-52.3200;-50.2900;-2.0300
1220.9070;-52.2700;-50.2600;-2.0100
1221.1060;-52.2200;-50.2000;-2.0200
1221.3050;-52.1700;-50.1400;-2.0300
1221.5040;-52.1300;-50.0900;-2.0400
1221.7040;-52.0600;-50.0200;-2.0400
1221.9030;-52.0100;-49.9700;-2.0400
1222.1020;-51.9400;-49.8900;-2.0500
1222.3010;-51.8800;-49.8300;-2.0500
1222.5000;-51.8200;-49.7600;-2.0600
1222.6990;-51.7400;-49.6900;-2.0500
1222.8980;-51.6800;-49.6300;-2.0500
1223.0970;-51.6100;-49.5400;-2.0700
1223.2970;-51.5300;-49.4700;-2.0600
1223.4960;-51.4600;-49.3900;-2.0700
1223.6950;-51.3900;-49.3100;-2.0800
1223.8940;-51.3300;-49.2500;-2.0800
1224.0930;-51.2500;-49.1700;-2.0800
1224.2920;-51.1900;-49.1000;-2.0900
1224.4910;-51.1300;-49.0300;-2.1000
1224.6900;-51.0700;-48.9600;-2.1100
1224.8890;-51.0000;-48.9100;-2.0900
1225.0890;-50.9500;-48.8400;-2.1100
1225.2880;-50.8900;-48.7700;-2.1200
1225.4870;-50.8500;-48.7200;-2.1300
1225.6860;-50.7900;-48.6600;-2.1300
1225.8850;-50.7500;-48.6200;-2.1300
1226.0840;-50.7200;-48.5500;-2.1700
1226.2830;-50.6800;-48.5000;-2.1800
1226.4820;-50.6500;-48.4400;-2.2100
1226.6810;-50.6100;-48.3800;-2.2300
1226.8810;-50.5800;-48.3400;-2.2400
1227.0800;-50.5500;-48.2700;-2.2800
1227.2790;-50.5200;-48.2200;-2.3000
1227.4780;-50.4900;-48.1600;-2.3300
1227.6770;-50.4500;-48.1000;-2.3500
1227.8760;-50.4300;-48.0400;-2.3900
1228.0750;-50.3900;-47.9600;-2.4300
1228.2740;-50.3600;-47.8900;-2.4700
1228.4740;-50.3300;-47.8300;-2.5000
1228.6730;-50.2800;-47.7500;-2.5300
1228.8720;-50.2400;-47.6800;-2.5600
1229.0710;-50.2000;-47.5900;-2.6100
1229.2700;-50.1600;-47.5100;-2.6500
1229.4690;-50.1100;-47.4300;-2.6800
1229.6680;-50.0500;-47.3500;-2.7000
1229.8670;-50.0000;-47.2700;-2.7300
1230.0660;-49.9500;-47.1800;-2.7700
1230.2660;-49.8900;-47.0900;-2.8000
1230.4650;-49.8300;-47.0100;-2.8200
1230.6640;-49.7700;-46.9200;-2.8500
1230.8630;-49.7300;-46.8600;-2.8700
1231.0620;-49.6800;-46.7700;-2.9100
1231.2610;-49.6400;-46.7100;-2.9300
1231.4600;-49.6200;-46.6500;-2.9700
1231.6590;-49.5600;-46.5700;-2.9900
1231.8580;-49.5100;-46.5100;-3.0000
1232.0580;-49.4800;-46.4400;-3.0400
1232.2570;-49.4300;-46.3800;-3.0500
1232.4560;-49.4100;-46.3300;-3.0800
1232.6550;-49.3600;-46.2600;-3.1000
1232.8540;-49.3200;-46.2000;-3.1200
1233.0530;-49.2800;-46.1400;-3.1400
1233.2520;-49.2300;-46.0700;-3.1600
1233.4510;-49.1900;-46.0100;-3.1800
1233.6500;-49.1300;-45.9400;-3.1900
1233.8500;-49.0800;-45.8900;-3.1900
1234.0490;-49.0200;-45.8000;-3.2200
1234.2480;-48.9500;-45.7500;-3.2000
1234.4470;-48.8900;-45.6600;-3.2300
1234.6460;-48.8100;-45.6000;-3.2100
1234.8450;-48.7400;-45.5200;-3.2200
1235.0440;-48.6400;-45.4400;-3.2000
1235.2430;-48.5600;-45.3800;-3.1800
1235.4430;-48.4700;-45.2700;-3.2000
1235.6420;-48.3700;-45.2000;-3.1700
1235.8410;-48.2800;-45.1000;-3.1800
1236.0400;-48.1700;-45.0100;-3.1600
1236.2390;-48.0600;-44.9200;-3.1400
1236.4380;-47.9500;-44.8100;-3.1400
1236.6370;-47.8500;-44.7300;-3.1200
1236.8360;-47.7500;-44.6400;-3.1100
1237.0350;-47.6400;-44.5500;-3.0900
1237.2350;-47.5300;-44.4700;-3.0600
1237.4340;-47.4300;-44.3600;-3.0700
1237.6330;-47.3300;-44.2900;-3.0400
1237.8320;-47.2400;-44.2100;-3.0300
1238.0310;-47.1300;-44.1100;-3.0200
1238.2300;-47.0400;-44.0500;-2.9900
1238.4290;-46.9300;-43.9500;-2.9800
1238.6280;-46.8300;-43.8800;-2.9500
1238.8270;-46.7400;-43.7900;-2.9500
1239.0270;-46.6400;-43.7200;-2.9200
1239.2260;-46.5400;-43.6500;-2.8900
1239.4250;-46.4200;-43.5500;-2.8700
1239.6240;-46.3200;-43.4800;-2.8400
1239.8230;-46.2300;-43.3900;-2.8400
1240.0220;-46.1100;-43.3100;-2.8000
1240.2210;-46.0000;-43.2300;-2.7700
1240.4200;-45.8600;-43.1300;-2.7300
1240.6200;-45.7700;-43.0500;-2.7200
1240.8190;-45.6400;-42.9400;-2.7000
1241.0180;-45.5100;-42.8300;-2.6800
1241.2170;-45.4000;-42.7300;-2.6700
1241.4160;-45.2600;-42.6200;-2.6400
1241.6150;-45.1300;-42.5000;-2.6300
1241.8140;-45.0000;-42.3900;-2.6100
1242.0130;-44.8800;-42.2700;-2.6100
1242.2120;-44.7600;-42.1700;-2.5900
1242.4120;-44.6400;-42.0400;-2.6000
1242.6110;-44.5200;-41.9300;-2.5900
1242.8100;-44.4000;-41.8000;-2.6000
1243.0090;-44.2800;-41.6800;-2.6000
1243.2080;-44.1800;-41.5700;-2.6100
1243.4070;-44.0700;-41.4500;-2.6200
1243.6060;-43.9700;-41.3300;-2.6400
1243.8050;-43.8700;-41.2100;-2.6600
1244.0040;-43.7700;-41.0900;-2.6800
1244.2040;-43.7000;-40.9900;-2.7100
1244.4030;-43.6100;-40.8700;-2.7400
1244.6020;-43.5300;-40.7600;-2.7700
1244.8010;-43.4500;-40.6400;-2.8100
1245.0000;-43.3800;-40.5300;-2.8500
1245.1990;-43.3200;-40.4300;-2.8900
1245.3980;-43.2500;-40.3100;-2.9400
1245.5970;-43.1900;-40.2000;-2.9900
1245.7970;-43.1200;-40.0800;-3.0400
1245.9960;-43.0500;-39.9600;-3.0900
1246.1950;-43.0000;-39.8600;-3.1400
1246.3940;-42.9400;-39.7300;-3.2100
1246.5930;-42.8800;-39.6000;-3.2800
1246.7920;-42.8200;-39.4800;-3.3400
1246.9910;-42.7500;-39.3400;-3.4100
1247.1900;-42.7100;-39.2300;-3.4800
1247.3890;-42.6500;-39.0900;-3.5600
1247.5890;-42.5900;-38.9600;-3.6300
1247.7880;-42.5400;-38.8200;-3.7200
1247.9870;-42.4800;-38.6800;-3.8000
1248.1860;-42.4500;-38.5600;-3.8900
1248.3850;-42.4000;-38.4100;-3.9900
1248.5840;-42.3600;-38.2800;-4.0800
1248.7830;-42.3200;-38.1400;-4.1800
1248.9820;-42.3000;-38.0100;-4.2900
1249.1810;-42.2800;-37.8800;-4.4000
1249.3810;-42.2700;-37.7400;-4.5300
1249.5800;-42.2600;-37.6100;-4.6500
1249.7790;-42.2500;-37.4700;-4.7800
1249.9780;-42.2400;-37.3300;-4.9100
1250.1770;-42.2600;-37.2200;-5.0400
1250.3760;-42.2700;-37.0800;-5.1900
1250.5750;-42.3000;-36.9500;-5.3500
1250.7740;-42.3200;-36.8200;-5.5000
1250.9740;-42.3600;-36.7000;-5.6600
1251.1730;-42.4100;-36.5800;-5.8300
1251.3720;-42.4500;-36.4400;-6.0100
1251.5710;-42.5200;-36.3400;-6.1800
1251.7700;-42.5600;-36.2000;-6.3600
1251.9690;-42.6200;-36.0700;-6.5500
1252.1680;-42.6900;-35.9400;-6.7500
1252.3670;-42.7400;-35.7800;-6.9600
1252.5660;-42.8300;-35.6800;-7.1500
1252.7660;-42.8800;-35.5400;-7.3400
1252.9650;-42.9600;-35.4300;-7.5300
1253.1640;-43.0300;-35.2800;-7.7500
1253.3630;-43.0900;-35.1400;-7.9500
1253.5620;-43.1800;-35.0200;-8.1600
1253.7610;-43.2400;-34.8800;-8.3600
1253.9600;-43.3300;-34.7600;-8.5700
1254.1590;-43.4100;-34.6100;-8.8000
1254.3580;-43.4800;-34.4800;-9.0000
1254.5580;-43.5700;-34.3500;-9.2200
1254.7570;-43.6300;-34.2100;-9.4200
1254.9560;-43.7200;-34.0800;-9.6400
1255.1550;-43.8000;-33.9500;-9.8500
1255.3540;-43.8700;-33.8200;-10.0500
1255.5530;-43.9600;-33.7000;-10.2600
1255.7520;-44.0200;-33.5700;-10.4500
1255.9510;-44.0900;-33.4500;-10.6400
1256.1500;-44.1500;-33.3100;-10.8400
1256.3500;-44.1900;-33.1900;-11.0000
1256.5490;-44.2400;-33.0700;-11.1700
1256.7480;-44.2600;-32.9400;-11.3200
1256.9470;-44.2700;-32.8200;-11.4500
1257.1460;-44.2500;-32.6900;-11.5600
1257.3450;-44.2200;-32.5600;-11.6600
1257.5440;-44.1900;-32.4400;-11.7500
1257.7430;-44.1100;-32.3100;-11.8000
1257.9430;-44.0300;-32.1900;-11.8400
1258.1420;-43.9100;-32.0600;-11.8500
1258.3410;-43.7800;-31.9400;-11.8400
1258.5400;-43.6300;-31.8100;-11.8200
1258.7390;-43.4500;-31.6800;-11.7700
1258.9380;-43.2700;-31.5500;-11.7200
1259.1370;-43.0500;-31.4200;-11.6300
1259.3360;-42.8300;-31.3000;-11.5300
1259.5350;-42.5900;-31.1700;-11.4200
1259.7350;-42.3400;-31.0400;-11.3000
1259.9340;-42.0900;-30.9100;-11.1800
1260.1330;-41.8200;-30.7800;-11.0400
1260.3320;-41.5500;-30.6600;-10.8900
1260.5310;-41.2700;-30.5300;-10.7400
1260.7300;-40.9800;-30.4100;-10.5700
1260.9290;-40.7100;-30.2900;-10.4200
1261.1280;-40.4100;-30.1500;-10.2600
1261.3270;-40.1400;-30.0400;-10.1000
1261.5270;-39.8600;-29.9200;-9.9400
1261.7260;-39.5800;-29.8000;-9.7800
1261.9250;-39.3100;-29.6800;-9.6300
1262.1240;-39.0200;-29.5500;-9.4700
1262.3230;-38.7600;-29.4400;-9.3200
1262.5220;-38.4900;-29.3200;-9.1700
1262.7210;-38.2200;-29.2000;-9.0200
1262.9200;-37.9700;-29.0800;-8.8900
1263.1200;-37.7000;-28.9600;-8.7400
1263.3190;-37.4600;-28.8400;-8.6200
1263.5180;-37.2100;-28.7200;-8.4900
1263.7170;-36.9600;-28.6000;-8.3600
1263.9160;-36.7200;-28.4800;-8.2400
1264.1150;-36.4700;-28.3500;-8.1200
1264.3140;-36.2400;-28.2400;-8.0000
1264.5130;-35.9600;-28.1100;-7.8500
1264.7120;-35.7800;-27.9900;-7.7900
1264.9120;-35.5400;-27.8600;-7.6800
1265.1110;-35.3200;-27.7400;-7.5800
1265.3100;-35.1000;-27.6200;-7.4800
1265.5090;-34.9000;-27.4900;-7.4100
1265.7080;-34.7000;-27.3800;-7.3200
1265.9070;-34.4900;-27.2600;-7.2300
1266.1060;-34.3000;-27.1300;-7.1700
1266.3050;-34.1000;-27.0300;-7.0700
1266.5040;-33.9300;-26.9100;-7.0200
1266.7040;-33.7600;-26.8000;-6.9600
1266.9030;-33.5800;-26.6800;-6.9000
1267.1020;-33.4200;-26.5700;-6.8500
1267.3010;-33.2500;-26.4700;-6.7800
1267.5000;-33.1000;-26.3500;-6.7500
1267.6990;-32.9600;-26.2500;-6.7100
1267.8980;-32.8100;-26.1300;-6.6800
1268.0970;-32.6800;-26.0200;-6.6600
1268.2970;-32.5400;-25.9100;-6.6300
1268.4960;-32.4200;-25.8200;-6.6000
1268.6950;-32.3100;-25.7100;-6.6000
1268.8940;-32.1700;-25.5900;-6.5800
1269.0930;-32.0600;-25.4900;-6.5700
1269.2920;-31.9400;-25.3700;-6.5700
1269.4910;-31.8400;-25.2600;-6.5800
1269.6900;-31.7500;-25.1500;-6.6000
1269.8890;-31.6400;-25.0300;-6.6100
1270.0890;-31.5500;-24.9300;-6.6200
1270.2880;-31.4500;-24.8000;-6.6500
1270.4870;-31.3700;-24.7000;-6.6700
1270.6860;-31.2900;-24.5900;-6.7000
1270.8850;-31.2000;-24.4700;-6.7300
1271.0840;-31.1300;-24.3700;-6.7600
1271.2830;-31.0500;-24.2600;-6.7900
1271.4820;-30.9800;-24.1500;-6.8300
1271.6810;-30.9300;-24.0500;-6.8800
1271.8810;-30.8600;-23.9400;-6.9200
1272.0800;-30.8200;-23.8500;-6.9700
1272.2790;-30.7600;-23.7300;-7.0300
1272.4780;-30.7200;-23.6400;-7.0800
1272.6770;-30.6900;-23.5400;-7.1500
1272.8760;-30.6600;-23.4300;-7.2300
1273.0750;-30.6500;-23.3400;-7.3100
1273.2740;-30.6200;-23.2300;-7.3900
1273.4740;-30.6100;-23.1300;-7.4800
1273.6730;-30.6000;-23.0300;-7.5700
1273.8720;-30.6000;-22.9300;-7.6700
1274.0710;-30.6200;-22.8400;-7.7800
1274.2700;-30.6100;-22.7300;-7.8800
1274.4690;-30.6300;-22.6300;-8.0000
1274.6680;-30.6400;-22.5200;-8.1200
1274.8670;-30.6700;-22.4100;-8.2600
1275.0660;-30.7000;-22.3200;-8.3800
1275.2660;-30.7300;-22.2000;-8.5300
1275.4650;-30.7700;-22.1100;-8.6600
1275.6640;-30.8100;-22.0100;-8.8000
1275.8630;-30.8500;-21.9100;-8.9400
1276.0620;-30.9100;-21.8100;-9.1000
1276.2610;-30.9700;-21.7100;-9.2600
1276.4600;-31.0400;-21.6200;-9.4200
1276.6590;-31.1000;-21.5100;-9.5900
1276.8580;-31.1700;-21.4200;-9.7500
1277.0580;-31.2600;-21.3400;-9.9200
1277.2570;-31.3500;-21.2300;-10.1200
1277.4560;-31.4600;-21.1600;-10.3000
1277.6550;-31.5500;-21.0600;-10.4900
1277.8540;-31.6700;-20.9700;-10.7000
1278.0530;-31.7900;-20.8800;-10.9100
1278.2520;-31.9100;-20.7900;-11.1200
1278.4510;-32.0600;-20.7200;-11.3400
1278.6500;-32.2000;-20.6200;-11.5800
1278.8500;-32.3600;-20.5300;-11.8300
1279.0490;-32.5200;-20.4400;-12.0800
1279.2480;-32.6900;-20.3500;-12.3400
1279.4470;-32.8800;-20.2800;-12.6000
1279.6460;-33.0700;-20.1800;-12.8900
1279.8450;-33.2800;-20.1000;-13.1800
1280.0440;-33.4900;-20.0100;-13.4800
1280.2430;-33.7100;-19.9100;-13.8000
1280.4430;-33.9600;-19.8400;-14.1200
1280.6420;-34.1800;-19.7500;-14.4300
1280.8410;-34.4400;-19.6700;-14.7700
1281.0400;-34.6900;-19.5800;-15.1100
1281.2390;-34.9500;-19.4900;-15.4600
1281.4380;-35.2100;-19.4200;-15.7900
1281.6370;-35.4700;-19.3300;-16.1400
1281.8360;-35.7500;-19.2600;-16.4900
1282.0350;-36.0000;-19.1700;-16.8300
1282.2350;-36.2500;-19.0900;-17.1600
1282.4340;-36.5000;-19.0100;-17.4900
1282.6330;-36.7300;-18.9400;-17.7900
1282.8320;-36.9500;-18.8700;-18.0800
1283.0310;-37.1100;-18.7800;-18.3300
1283.2300;-37.2500;-18.7100;-18.5400
1283.4290;-37.3300;-18.6400;-18.6900
1283.6280;-37.3700;-18.5600;-18.8100
1283.8270;-37.3600;-18.4900;-18.8700
1284.0270;-37.2700;-18.4100;-18.8600
1284.2260;-37.1400;-18.3400;-18.8000
1284.4250;-36.9400;-18.2700;-18.6700
1284.6240;-36.6900;-18.1900;-18.5000
1284.8230;-36.4000;-18.1300;-18.2700
1285.0220;-36.0500;-18.0400;-18.0100
1285.2210;-35.6900;-17.9700;-17.7200
1285.4200;-35.2900;-17.9000;-17.3900
1285.6200;-34.8800;-17.8300;-17.0500
1285.8190;-34.4700;-17.7700;-16.7000
1286.0180;-34.0400;-17.6900;-16.3500
1286.2170;-33.6200;-17.6200;-16.0000
1286.4160;-33.1800;-17.5400;-15.6400
1286.6150;-32.7600;-17.4800;-15.2800
1286.8140;-32.3400;-17.4300;-14.9100
1287.0130;-31.9200;-17.3500;-14.5700
1287.2120;-31.5300;-17.2900;-14.2400
1287.4120;-31.1200;-17.2200;-13.9000
1287.6110;-30.7400;-17.1500;-13.5900
1287.8100;-30.3700;-17.1000;-13.2700
1288.0090;-30.0000;-17.0200;-12.9800
1288.2080;-29.6600;-16.9700;-12.6900
1288.4070;-29.3100;-16.9000;-12.4100
1288.6060;-28.9900;-16.8400;-12.1500
1288.8050;-28.6600;-16.7900;-11.8700
1289.0040;-28.3500;-16.7200;-11.6300
1289.2040;-28.0600;-16.6700;-11.3900
1289.4030;-27.7600;-16.6000;-11.1600
1289.6020;-27.4900;-16.5400;-10.9500
1289.8010;-27.2100;-16.4900;-10.7200
1290.0000;-26.9400;-16.4200;-10.5200
1290.1990;-26.6900;-16.3800;-10.3100
1290.3980;-26.4400;-16.3100;-10.1300
1290.5970;-26.2200;-16.2700;-9.9500
1290.7970;-25.9300;-16.2100;-9.7200
1290.9960;-25.7500;-16.1400;-9.6100
1291.1950;-25.5200;-16.0900;-9.4300
1291.3940;-25.3100;-16.0400;-9.2700
1291.5930;-25.1000;-15.9800;-9.1200
1291.7920;-24.8900;-15.9200;-8.9700
1291.9910;-24.7100;-15.8700;-8.8400
1292.1900;-24.5200;-15.8100;-8.7100
1292.3890;-24.3400;-15.7600;-8.5800
1292.5890;-24.1600;-15.7100;-8.4500
1292.7880;-23.9900;-15.6500;-8.3400
1292.9870;-23.8400;-15.6200;-8.2200
1293.1860;-23.6800;-15.5600;-8.1200
1293.3850;-23.5500;-15.5100;-8.0400
1293.5840;-23.3900;-15.4500;-7.9400
1293.7830;-23.2500;-15.4000;-7.8500
1293.9820;-23.1400;-15.3700;-7.7700
1294.1810;-23.0100;-15.3100;-7.7000
1294.3810;-22.9000;-15.2700;-7.6300
1294.5800;-22.7700;-15.2200;-7.5500
1294.7790;-22.6600;-15.1700;-7.4900
1294.9780;-22.5700;-15.1300;-7.4400
1295.1770;-22.4700;-15.0800;-7.3900
1295.3760;-22.4000;-15.0400;-7.3600
1295.5750;-22.2900;-14.9800;-7.3100
1295.7740;-22.2100;-14.9300;-7.2800
1295.9740;-22.1300;-14.8900;-7.2400
1296.1730;-22.0500;-14.8400;-7.2100
1296.3720;-22.0000;-14.8100;-7.1900
1296.5710;-21.9200;-14.7500;-7.1700
1296.7700;-21.8700;-14.7100;-7.1600
1296.9690;-21.8200;-14.6700;-7.1500
1297.1680;-21.7700;-14.6300;-7.1400
1297.3670;-21.7400;-14.6000;-7.1400
1297.5660;-21.6900;-14.5400;-7.1500
1297.7660;-21.6700;-14.5000;-7.1700
1297.9650;-21.6300;-14.4700;-7.1600
1298.1640;-21.6100;-14.4300;-7.1800
1298.3630;-21.6100;-14.4100;-7.2000
1298.5620;-21.5800;-14.3500;-7.2300
1298.7610;-21.5900;-14.3300;-7.2600
1298.9600;-21.5800;-14.2900;-7.2900
1299.1590;-21.5900;-14.2500;-7.3400
1299.3580;-21.6100;-14.2300;-7.3800
1299.5580;-21.6100;-14.1800;-7.4300
1299.7570;-21.6500;-14.1500;-7.5000
1299.9560;-21.6600;-14.1200;-7.5400
1300.1550;-21.7100;-14.0900;-7.6200
1300.3540;-21.7500;-14.0600;-7.6900
1300.5530;-21.7800;-14.0100;-7.7700
1300.7520;-21.8400;-14.0000;-7.8400
1300.9510;-21.8900;-13.9600;-7.9300
1301.1500;-21.9700;-13.9400;-8.0300
1301.3500;-22.0300;-13.9100;-8.1200
1301.5490;-22.1100;-13.8900;-8.2200
1301.7480;-22.2100;-13.8800;-8.3300
1301.9470;-22.2900;-13.8400;-8.4500
1302.1460;-22.4100;-13.8300;-8.5800
1302.3450;-22.5000;-13.8100;-8.6900
1302.5440;-22.6100;-13.7900;-8.8200
1302.7430;-22.7400;-13.7800;-8.9600
1302.9430;-22.8500;-13.7500;-9.1000
1303.1420;-23.0100;-13.7500;-9.2600
1303.3410;-23.1400;-13.7200;-9.4200
1303.5400;-23.2900;-13.7100;-9.5800
1303.7390;-23.4500;-13.7100;-9.7400
1303.9380;-23.6100;-13.6800;-9.9300
1304.1370;-23.8100;-13.6800;-10.1300
1304.3360;-23.9800;-13.6600;-10.3200
1304.5350;-24.1900;-13.6500;-10.5400
1304.7350;-24.4000;-13.6400;-10.7600
1304.9340;-24.6100;-13.6300;-10.9800
1305.1330;-24.8600;-13.6300;-11.2300
1305.3320;-25.0900;-13.6000;-11.4900
1305.5310;-25.3600;-13.6100;-11.7500
1305.7300;-25.6200;-13.6000;-12.0200
1305.9290;-25.9000;-13.5800;-12.3200
1306.1280;-26.2000;-13.6000;-12.6000
1306.3270;-26.5100;-13.5800;-12.9300
1306.5270;-26.8500;-13.5900;-13.2600
1306.7260;-27.1800;-13.5900;-13.5900
1306.9250;-27.5200;-13.5800;-13.9400
1307.1240;-27.9000;-13.6000;-14.3000
1307.3230;-28.3600;-13.5900;-14.7700
1307.5220;-28.7100;-13.6100;-15.1000
1307.7210;-29.1200;-13.6100;-15.5100
1307.9200;-29.5600;-13.6100;-15.9500
1308.1200;-30.0200;-13.6300;-16.3900
1308.3190;-30.4800;-13.6300;-16.8500
1308.5180;-30.9600;-13.6500;-17.3100
1308.7170;-31.4400;-13.6500;-17.7900
1308.9160;-31.9400;-13.6500;-18.2900
1309.1150;-32.4100;-13.6800;-18.7300
1309.3140;-32.8800;-13.6900;-19.1900
