Wavelength;Intensity_Meas;Intensity_Ref;Difference_dB
1200.0000;-57.5500;-54.7600;-2.7900
1200.1990;-57.4500;-54.7300;-2.7200
1200.3980;-57.4100;-54.7000;-2.7100
1200.5970;-57.4400;-54.6700;-2.7700
1200.7970;-57.4200;-54.6400;-2.7800
1200.9960;-57.3900;-54.6100;-2.7800
1201.1950;-57.3300;-54.5600;-2.7700
1201.3940;-57.3200;-54.5300;-2.7900
1201.5930;-57.3000;-54.4900;-2.8100
1201.7920;-57.2400;-54.4200;-2.8200
1201.9910;-57.2000;-54.3800;-2.8200
1202.1900;-57.1400;-54.3300;-2.8100
1202.3890;-57.0800;-54.2800;-2.8000
1202.5890;-57.0800;-54.2200;-2.8600
1202.7880;-57.0100;-54.1600;-2.8500
1202.9870;-56.9100;-54.1200;-2.7900
1203.1860;-56.8600;-54.0600;-2.8000
1203.3850;-56.8500;-54.0100;-2.8400
1203.5840;-56.8000;-53.9700;-2.8300
1203.7830;-56.6800;-53.9100;-2.7700
1203.9820;-56.6600;-53.9000;-2.7600
1204.1810;-56.6400;-53.8400;-2.8000
1204.3810;-56.5600;-53.8000;-2.7600
1204.5800;-56.5100;-53.7700;-2.7400
1204.7790;-56.4700;-53.7300;-2.7400
1204.9780;-56.4600;-53.7100;-2.7500
1205.1770;-56.4200;-53.6600;-2.7600
1205.3760;-56.3500;-53.6500;-2.7000
1205.5750;-56.3400;-53.6300;-2.7100
1205.7740;-56.3400;-53.6000;-2.7400
1205.9740;-56.3300;-53.5900;-2.7400
1206.1730;-56.2800;-53.5600;-2.7200
1206.3720;-56.2500;-53.5400;-2.7100
1206.5710;-56.2800;-53.5200;-2.7600
1206.7700;-56.2700;-53.4900;-2.7800
1206.9690;-56.2300;-53.4600;-2.7700
1207.1680;-56.2000;-53.4200;-2.7800
1207.3670;-56.1900;-53.4000;-2.7900
1207.5660;-56.2000;-53.3700;-2.8300
1207.7660;-56.1600;-53.3200;-2.8400
1207.9650;-56.1400;-53.3000;-2.8400
1208.1640;-56.1100;-53.2500;-2.8600
1208.3630;-56.0900;-53.1900;-2.9000
1208.5620;-56.0900;-53.1500;-2.9400
1208.7610;-56.0000;-53.1100;-2.8900
1208.9600;-55.9500;-53.0500;-2.9000
1209.1590;-55.9400;-52.9800;-2.9600
1209.3580;-55.9000;-52.9300;-2.9700
1209.5580;-55.8400;-52.8900;-2.9500
1209.7570;-55.7900;-52.8200;-2.9700
1209.9560;-55.7600;-52.7700;-2.9900
1210.1550;-55.7100;-52.7100;-3.0000
1210.3540;-55.6300;-52.6500;-2.9800
1210.5530;-55.6000;-52.6200;-2.9800
1210.7520;-55.5600;-52.5600;-3.0000
1210.9510;-55.5000;-52.5200;-2.9800
1211.1500;-55.4600;-52.4600;-3.0000
1211.3500;-55.4000;-52.4100;-2.9900
1211.5490;-55.3800;-52.3900;-2.9900
1211.7480;-55.3400;-52.3300;-3.0100
1211.9470;-55.2900;-52.3000;-2.9900
1212.1460;-55.2400;-52.2600;-2.9800
1212.3450;-55.2000;-52.2200;-2.9800
1212.5440;-55.2200;-52.2100;-3.0100
1212.7430;-55.1600;-52.1700;-2.9900
1212.9430;-55.1100;-52.1400;-2.9700
1213.1420;-55.1000;-52.1000;-3.0000
1213.3410;-55.0800;-52.0700;-3.0100
1213.5400;-55.0400;-52.0500;-2.9900
1213.7390;-54.9800;-52.0000;-2.9800
1213.9380;-54.9700;-51.9800;-2.9900
1214.1370;-54.9400;-51.9300;-3.0100
1214.3360;-54.8700;-51.8800;-2.9900
1214.5350;-54.8500;-51.8600;-2.9900
1214.7350;-54.8000;-51.8100;-2.9900
1214.9340;-54.7400;-51.7600;-2.9800
1215.1330;-54.6800;-51.7000;-2.9800
1215.3320;-54.6200;-51.6400;-2.9800
1215.5310;-54.5800;-51.6100;-2.9700
1215.7300;-54.5100;-51.5400;-2.9700
1215.9290;-54.4600;-51.4900;-2.9700
1216.1280;-54.3700;-51.4200;-2.9500
1216.3270;-54.2900;-51.3600;-2.9300
1216.5270;-54.2700;-51.3100;-2.9600
1216.7260;-54.1800;-51.2400;-2.9400
1216.9250;-54.0800;-51.1800;-2.9000
1217.1240;-54.0100;-51.1100;-2.9000
1217.3230;-53.9500;-51.0500;-2.9000
1217.5220;-53.8800;-51.0100;-2.8700
1217.7210;-53.7800;-50.9400;-2.8400
1217.9200;-53.7300;-50.9000;-2.8300
1218.1200;-53.6700;-50.8300;-2.8400
1218.3190;-53.5900;-50.7900;-2.8000
1218.5180;-53.5400;-50.7500;-2.7900
1218.7170;-53.4600;-50.7000;-2.7600
1218.9160;-53.4100;-50.6700;-2.7400
1219.1150;-53.3600;-50.6100;-2.7500
1219.3140;-53.2900;-50.5700;-2.7200
1219.5130;-53.2500;-50.5400;-2.7100
1219.7120;-53.2000;-50.5100;-2.6900
1219.9120;-53.1600;-50.4700;-2.6900
1220.1110;-53.0900;-50.4200;-2.6700
1220.3100;-53.0400;-50.3800;-2.6600
1220.5090;-53.0200;-50.3400;-2.6800
1220.7080;-52.9600;-50.2900;-2.6700
1220.9070;-52.9000;-50.2600;-2.6400
1221.1060;-52.8400;-50.2000;-2.6400
1221.3050;-52.7900;-50.1400;-2.6500
1221.5040;-52.7400;-50.0900;-2.6500
1221.7040;-52.6700;-50.0200;-2.6500
1221.9030;-52.6200;-49.9700;-2.6500
1222.1020;-52.5500;-49.8900;-2.6600
1222.3010;-52.4800;-49.8300;-2.6500
1222.5000;-52.4100;-49.7600;-2.6500
1222.6990;-52.3300;-49.6900;-2.6400
1222.8980;-52.2700;-49.6300;-2.6400
1223.0970;-52.1900;-49.5400;-2.6500
1223.2970;-52.1000;-49.4700;-2.6300
1223.4960;-52.0300;-49.3900;-2.6400
1223.6950;-51.9500;-49.3100;-2.6400
1223.8940;-51.8800;-49.2500;-2.6300
1224.0930;-51.7900;-49.1700;-2.6200
1224.2920;-51.7200;-49.1000;-2.6200
1224.4910;-51.6600;-49.0300;-2.6300
1224.6900;-51.5800;-48.9600;-2.6200
1224.8890;-51.5100;-48.9100;-2.6000
1225.0890;-51.4500;-48.8400;-2.6100
1225.2880;-51.3800;-48.7700;-2.6100
1225.4870;-51.3300;-48.7200;-2.6100
1225.6860;-51.2600;-48.6600;-2.6000
1225.8850;-51.2200;-48.6200;-2.6000
1226.0840;-51.1700;-48.5500;-2.6200
1226.2830;-51.1200;-48.5000;-2.6200
1226.4820;-51.0900;-48.4400;-2.6500
1226.6810;-51.0400;-48.3800;-2.6600
1226.8810;-51.0100;-48.3400;-2.6700
1227.0800;-50.9700;-48.2700;-2.7000
1227.2790;-50.9300;-48.2200;-2.7100
1227.4780;-50.9000;-48.1600;-2.7400
1227.6770;-50.8600;-48.1000;-2.7600
1227.8760;-50.8300;-48.0400;-2.7900
1228.0750;-50.7800;-47.9600;-2.8200
1228.2740;-50.7400;-47.8900;-2.8500
1228.4740;-50.7000;-47.8300;-2.8700
1228.6730;-50.6400;-47.7500;-2.8900
1228.8720;-50.5900;-47.6800;-2.9100
1229.0710;-50.5400;-47.5900;-2.9500
1229.2700;-50.4800;-47.5100;-2.9700
1229.4690;-50.4200;-47.4300;-2.9900
1229.6680;-50.3500;-47.3500;-3.0000
1229.8670;-50.2800;-47.2700;-3.0100
1230.0660;-50.2200;-47.1800;-3.0400
1230.2660;-50.1300;-47.0900;-3.0400
1230.4650;-50.0500;-47.0100;-3.0400
1230.6640;-49.9700;-46.9200;-3.0500
1230.8630;-49.9100;-46.8600;-3.0500
1231.0620;-49.8400;-46.7700;-3.0700
1231.2610;-49.7700;-46.7100;-3.0600
1231.4600;-49.7100;-46.6500;-3.0600
1231.6590;-49.6300;-46.5700;-3.0600
1231.8580;-49.5600;-46.5100;-3.0500
1232.0580;-49.4900;-46.4400;-3.0500
1232.2570;-49.4100;-46.3800;-3.0300
1232.4560;-49.3600;-46.3300;-3.0300
1232.6550;-49.2800;-46.2600;-3.0200
1232.8540;-49.2100;-46.2000;-3.0100
1233.0530;-49.1300;-46.1400;-2.9900
1233.2520;-49.0500;-46.0700;-2.9800
1233.4510;-48.9800;-46.0100;-2.9700
1233.6500;-48.8900;-45.9400;-2.9500
1233.8500;-48.8200;-45.8900;-2.9300
1234.0490;-48.7300;-45.8000;-2.9300
1234.2480;-48.6200;-45.7500;-2.8700
1234.4470;-48.5400;-45.6600;-2.8800
1234.6460;-48.4400;-45.6000;-2.8400
1234.8450;-48.3500;-45.5200;-2.8300
1235.0440;-48.2300;-45.4400;-2.7900
1235.2430;-48.1200;-45.3800;-2.7400
1235.4430;-48.0100;-45.2700;-2.7400
1235.6420;-47.9000;-45.2000;-2.7000
1235.8410;-47.7900;-45.1000;-2.6900
1236.0400;-47.6700;-45.0100;-2.6600
1236.2390;-47.5500;-44.9200;-2.6300
1236.4380;-47.4300;-44.8100;-2.6200
1236.6370;-47.3100;-44.7300;-2.5800
1236.8360;-47.2000;-44.6400;-2.5600
1237.0350;-47.0800;-44.5500;-2.5300
1237.2350;-46.9700;-44.4700;-2.5000
1237.4340;-46.8500;-44.3600;-2.4900
1237.6330;-46.7500;-44.2900;-2.4600
1237.8320;-46.6600;-44.2100;-2.4500
1238.0310;-46.5400;-44.1100;-2.4300
1238.2300;-46.4500;-44.0500;-2.4000
1238.4290;-46.3400;-43.9500;-2.3900
1238.6280;-46.2400;-43.8800;-2.3600
1238.8270;-46.1500;-43.7900;-2.3600
1239.0270;-46.0500;-43.7200;-2.3300
1239.2260;-45.9500;-43.6500;-2.3000
1239.4250;-45.8200;-43.5500;-2.2700
1239.6240;-45.7600;-43.4800;-2.2800
1239.8230;-45.6500;-43.3900;-2.2600
1240.0220;-45.5500;-43.3100;-2.2400
1240.2210;-45.4600;-43.2300;-2.2300
1240.4200;-45.3500;-43.1300;-2.2200
1240.6200;-45.2600;-43.0500;-2.2100
1240.8190;-45.1400;-42.9400;-2.2000
1241.0180;-45.0300;-42.8300;-2.2000
1241.2170;-44.9300;-42.7300;-2.2000
1241.4160;-44.8100;-42.6200;-2.1900
1241.6150;-44.7100;-42.5000;-2.2100
1241.8140;-44.6000;-42.3900;-2.2100
1242.0130;-44.5000;-42.2700;-2.2300
1242.2120;-44.4000;-42.1700;-2.2300
1242.4120;-44.3000;-42.0400;-2.2600
1242.6110;-44.2100;-41.9300;-2.2800
1242.8100;-44.1100;-41.8000;-2.3100
1243.0090;-44.0100;-41.6800;-2.3300
1243.2080;-43.9400;-41.5700;-2.3700
1243.4070;-43.8600;-41.4500;-2.4100
1243.6060;-43.7800;-41.3300;-2.4500
1243.8050;-43.7100;-41.2100;-2.5000
1244.0040;-43.6400;-41.0900;-2.5500
1244.2040;-43.5900;-40.9900;-2.6000
1244.4030;-43.5200;-40.8700;-2.6500
1244.6020;-43.4800;-40.7600;-2.7200
1244.8010;-43.4200;-40.6400;-2.7800
1245.0000;-43.3800;-40.5300;-2.8500
1245.1990;-43.3500;-40.4300;-2.9200
1245.3980;-43.3000;-40.3100;-2.9900
1245.5970;-43.2700;-40.2000;-3.0700
1245.7970;-43.2300;-40.0800;-3.1500
1245.9960;-43.1900;-39.9600;-3.2300
1246.1950;-43.1700;-39.8600;-3.3100
1246.3940;-43.1400;-39.7300;-3.4100
1246.5930;-43.1100;-39.6000;-3.5100
1246.7920;-43.0800;-39.4800;-3.6000
1246.9910;-43.0400;-39.3400;-3.7000
1247.1900;-43.0200;-39.2300;-3.7900
1247.3890;-43.0000;-39.0900;-3.9100
1247.5890;-42.9800;-38.9600;-4.0200
1247.7880;-42.9500;-38.8200;-4.1300
1247.9870;-42.9200;-38.6800;-4.2400
1248.1860;-42.9100;-38.5600;-4.3500
1248.3850;-42.8900;-38.4100;-4.4800
1248.5840;-42.8800;-38.2800;-4.6000
1248.7830;-42.8600;-38.1400;-4.7200
1248.9820;-42.8500;-38.0100;-4.8400
1249.1810;-42.8600;-37.8800;-4.9800
1249.3810;-42.8500;-37.7400;-5.1100
1249.5800;-42.8600;-37.6100;-5.2500
1249.7790;-42.8600;-37.4700;-5.3900
1249.9780;-42.8600;-37.3300;-5.5300
1250.1770;-42.8900;-37.2200;-5.6700
1250.3760;-42.9100;-37.0800;-5.8300
1250.5750;-42.9400;-36.9500;-5.9900
1250.7740;-42.9600;-36.8200;-6.1400
1250.9740;-43.0000;-36.7000;-6.3000
1251.1730;-43.0400;-36.5800;-6.4600
1251.3720;-43.0700;-36.4400;-6.6300
1251.5710;-43.1300;-36.3400;-6.7900
1251.7700;-43.1500;-36.2000;-6.9500
1251.9690;-43.1800;-36.0700;-7.1100
1252.1680;-43.2200;-35.9400;-7.2800
1252.3670;-43.2400;-35.7800;-7.4600
1252.5660;-43.2800;-35.6800;-7.6000
1252.7660;-43.2700;-35.5400;-7.7300
1252.9650;-43.2900;-35.4300;-7.8600
1253.1640;-43.2900;-35.2800;-8.0100
1253.3630;-43.2700;-35.1400;-8.1300
1253.5620;-43.2700;-35.0200;-8.2500
1253.7610;-43.2300;-34.8800;-8.3500
1253.9600;-43.2000;-34.7600;-8.4400
1254.1590;-43.1400;-34.6100;-8.5300
1254.3580;-43.0600;-34.4800;-8.5800
1254.5580;-43.0000;-34.3500;-8.6500
1254.7570;-42.9000;-34.2100;-8.6900
1254.9560;-42.8000;-34.0800;-8.7200
1255.1550;-42.6900;-33.9500;-8.7400
1255.3540;-42.5600;-33.8200;-8.7400
1255.5530;-42.4400;-33.7000;-8.7400
1255.7520;-42.2800;-33.5700;-8.7100
1255.9510;-42.1300;-33.4500;-8.6800
1256.1500;-41.9600;-33.3100;-8.6500
1256.3500;-41.7700;-33.1900;-8.5800
1256.5490;-41.6100;-33.0700;-8.5400
1256.7480;-41.4000;-32.9400;-8.4600
1256.9470;-41.2100;-32.8200;-8.3900
1257.1460;-40.9900;-32.6900;-8.3000
1257.3450;-40.7700;-32.5600;-8.2100
1257.5440;-40.5700;-32.4400;-8.1300
1257.7430;-40.3400;-32.3100;-8.0300
1257.9430;-40.1200;-32.1900;-7.9300
1258.1420;-39.8900;-32.0600;-7.8300
1258.3410;-39.6500;-31.9400;-7.7100
1258.5400;-39.4300;-31.8100;-7.6200
1258.7390;-39.1800;-31.6800;-7.5000
1258.9380;-38.9500;-31.5500;-7.4000
1259.1370;-38.7100;-31.4200;-7.2900
1259.3360;-38.4700;-31.3000;-7.1700
1259.5350;-38.2400;-31.1700;-7.0700
1259.7350;-37.9900;-31.0400;-6.9500
1259.9340;-37.7700;-30.9100;-6.8600
1260.1330;-37.5300;-30.7800;-6.7500
1260.3320;-37.3000;-30.6600;-6.6400
1260.5310;-37.0600;-30.5300;-6.5300
1260.7300;-36.8300;-30.4100;-6.4200
1260.9290;-36.6100;-30.2900;-6.3200
1261.1280;-36.3700;-30.1500;-6.2200
1261.3270;-36.1600;-30.0400;-6.1200
1261.5270;-35.9100;-29.9200;-5.9900
1261.7260;-35.7300;-29.8000;-5.9300
1261.9250;-35.5200;-29.6800;-5.8400
1262.1240;-35.3100;-29.5500;-5.7600
1262.3230;-35.1200;-29.4400;-5.6800
1262.5220;-34.9200;-29.3200;-5.6000
1262.7210;-34.7300;-29.2000;-5.5300
1262.9200;-34.5400;-29.0800;-5.4600
1263.1200;-34.3400;-28.9600;-5.3800
1263.3190;-34.1700;-28.8400;-5.3300
1263.5180;-33.9900;-28.7200;-5.2700
1263.7170;-33.8200;-28.6000;-5.2200
1263.9160;-33.6400;-28.4800;-5.1600
1264.1150;-33.4600;-28.3500;-5.1100
1264.3140;-33.3100;-28.2400;-5.0700
1264.5130;-33.1400;-28.1100;-5.0300
1264.7120;-32.9900;-27.9900;-5.0000
1264.9120;-32.8200;-27.8600;-4.9600
1265.1110;-32.6700;-27.7400;-4.9300
1265.3100;-32.5200;-27.6200;-4.9000
1265.5090;-32.3800;-27.4900;-4.8900
1265.7080;-32.2500;-27.3800;-4.8700
1265.9070;-32.1000;-27.2600;-4.8400
1266.1060;-31.9700;-27.1300;-4.8400
1266.3050;-31.8500;-27.0300;-4.8200
1266.5040;-31.7400;-26.9100;-4.8300
1266.7040;-31.6300;-26.8000;-4.8300
1266.9030;-31.5100;-26.6800;-4.8300
1267.1020;-31.4000;-26.5700;-4.8300
1267.3010;-31.3100;-26.4700;-4.8400
1267.5000;-31.2200;-26.3500;-4.8700
1267.6990;-31.1400;-26.2500;-4.8900
1267.8980;-31.0400;-26.1300;-4.9100
1268.0970;-30.9700;-26.0200;-4.9500
1268.2970;-30.8900;-25.9100;-4.9800
1268.4960;-30.8300;-25.8200;-5.0100
1268.6950;-30.7600;-25.7100;-5.0500
1268.8940;-30.6900;-25.5900;-5.1000
1269.0930;-30.6300;-25.4900;-5.1400
1269.2920;-30.5700;-25.3700;-5.2000
1269.4910;-30.5200;-25.2600;-5.2600
1269.6900;-30.4800;-25.1500;-5.3300
1269.8890;-30.4300;-25.0300;-5.4000
1270.0890;-30.3900;-24.9300;-5.4600
1270.2880;-30.3500;-24.8000;-5.5500
1270.4870;-30.3200;-24.7000;-5.6200
1270.6860;-30.3000;-24.5900;-5.7100
1270.8850;-30.2700;-24.4700;-5.8000
1271.0840;-30.2500;-24.3700;-5.8800
1271.2830;-30.2300;-24.2600;-5.9700
1271.4820;-30.2200;-24.1500;-6.0700
1271.6810;-30.2200;-24.0500;-6.1700
1271.8810;-30.2100;-23.9400;-6.2700
1272.0800;-30.2300;-23.8500;-6.3800
1272.2790;-30.2400;-23.7300;-6.5100
1272.4780;-30.2500;-23.6400;-6.6100
1272.6770;-30.2900;-23.5400;-6.7500
1272.8760;-30.3200;-23.4300;-6.8900
1273.0750;-30.3700;-23.3400;-7.0300
1273.2740;-30.4100;-23.2300;-7.1800
1273.4740;-30.4600;-23.1300;-7.3300
1273.6730;-30.5300;-23.0300;-7.5000
1273.8720;-30.5900;-22.9300;-7.6600
1274.0710;-30.6700;-22.8400;-7.8300
1274.2700;-30.7400;-22.7300;-8.0100
1274.4690;-30.8300;-22.6300;-8.2000
1274.6680;-30.9200;-22.5200;-8.4000
1274.8670;-31.0100;-22.4100;-8.6000
1275.0660;-31.1200;-22.3200;-8.8000
1275.2660;-31.2200;-22.2000;-9.0200
1275.4650;-31.3300;-22.1100;-9.2200
1275.6640;-31.4500;-22.0100;-9.4400
1275.8630;-31.5700;-21.9100;-9.6600
1276.0620;-31.7100;-21.8100;-9.9000
1276.2610;-31.8400;-21.7100;-10.1300
1276.4600;-31.9900;-21.6200;-10.3700
1276.6590;-32.1200;-21.5100;-10.6100
1276.8580;-32.2800;-21.4200;-10.8600
1277.0580;-32.4700;-21.3400;-11.1300
1277.2570;-32.6400;-21.2300;-11.4100
1277.4560;-32.8300;-21.1600;-11.6700
1277.6550;-33.0200;-21.0600;-11.9600
1277.8540;-33.2200;-20.9700;-12.2500
1278.0530;-33.4300;-20.8800;-12.5500
1278.2520;-33.6400;-20.7900;-12.8500
1278.4510;-33.8800;-20.7200;-13.1600
1278.6500;-34.0900;-20.6200;-13.4700
1278.8500;-34.3200;-20.5300;-13.7900
1279.0490;-34.5600;-20.4400;-14.1200
1279.2480;-34.7700;-20.3500;-14.4200
1279.4470;-35.0100;-20.2800;-14.7300
1279.6460;-35.2100;-20.1800;-15.0300
1279.8450;-35.4100;-20.1000;-15.3100
1280.0440;-35.5900;-20.0100;-15.5800
1280.2430;-35.7400;-19.9100;-15.8300
1280.4430;-35.8900;-19.8400;-16.0500
1280.6420;-35.9800;-19.7500;-16.2300
1280.8410;-36.0400;-19.6700;-16.3700
1281.0400;-36.0500;-19.5800;-16.4700
1281.2390;-36.0100;-19.4900;-16.5200
1281.4380;-35.9400;-19.4200;-16.5200
1281.6370;-35.8000;-19.3300;-16.4700
1281.8360;-35.6300;-19.2600;-16.3700
1282.0350;-35.4000;-19.1700;-16.2300
1282.2350;-35.1400;-19.0900;-16.0500
1282.4340;-34.8500;-19.0100;-15.8400
1282.6330;-34.5200;-18.9400;-15.5800
1282.8320;-34.1800;-18.8700;-15.3100
1283.0310;-33.8100;-18.7800;-15.0300
1283.2300;-33.4300;-18.7100;-14.7200
1283.4290;-33.0400;-18.6400;-14.4000
1283.6280;-32.6400;-18.5600;-14.0800
1283.8270;-32.2600;-18.4900;-13.7700
1284.0270;-31.8600;-18.4100;-13.4500
1284.2260;-31.4700;-18.3400;-13.1300
1284.4250;-31.0900;-18.2700;-12.8200
1284.6240;-30.7000;-18.1900;-12.5100
1284.8230;-30.3400;-18.1300;-12.2100
1285.0220;-29.9600;-18.0400;-11.9200
1285.2210;-29.6100;-17.9700;-11.6400
1285.4200;-29.2600;-17.9000;-11.3600
1285.6200;-28.9200;-17.8300;-11.0900
1285.8190;-28.6000;-17.7700;-10.8300
1286.0180;-28.2600;-17.6900;-10.5700
1286.2170;-27.9600;-17.6200;-10.3400
1286.4160;-27.6400;-17.5400;-10.1000
1286.6150;-27.3500;-17.4800;-9.8700
1286.8140;-27.0700;-17.4300;-9.6400
1287.0130;-26.7700;-17.3500;-9.4200
1287.2120;-26.5100;-17.2900;-9.2200
1287.4120;-26.2300;-17.2200;-9.0100
1287.6110;-25.9400;-17.1500;-8.7900
1287.8100;-25.7200;-17.1000;-8.6200
1288.0090;-25.4700;-17.0200;-8.4500
1288.2080;-25.2500;-16.9700;-8.2800
1288.4070;-25.0200;-16.9000;-8.1200
1288.6060;-24.8100;-16.8400;-7.9700
1288.8050;-24.5900;-16.7900;-7.8000
1289.0040;-24.3800;-16.7200;-7.6600
1289.2040;-24.1900;-16.6700;-7.5200
1289.4030;-23.9900;-16.6000;-7.3900
1289.6020;-23.8100;-16.5400;-7.2700
1289.8010;-23.6200;-16.4900;-7.1300
1290.0000;-23.4500;-16.4200;-7.0300
1290.1990;-23.2900;-16.3800;-6.9100
1290.3980;-23.1300;-16.3100;-6.8200
1290.5970;-22.9900;-16.2700;-6.7200
1290.7970;-22.8300;-16.2100;-6.6200
1290.9960;-22.6700;-16.1400;-6.5300
1291.1950;-22.5400;-16.0900;-6.4500
1291.3940;-22.4000;-16.0400;-6.3600
1291.5930;-22.2700;-15.9800;-6.2900
1291.7920;-22.1400;-15.9200;-6.2200
1291.9910;-22.0300;-15.8700;-6.1600
1292.1900;-21.9200;-15.8100;-6.1100
1292.3890;-21.8100;-15.7600;-6.0500
1292.5890;-21.7100;-15.7100;-6.0000
1292.7880;-21.6000;-15.6500;-5.9500
1292.9870;-21.5200;-15.6200;-5.9000
1293.1860;-21.4300;-15.5600;-5.8700
1293.3850;-21.3500;-15.5100;-5.8400
1293.5840;-21.2800;-15.4500;-5.8300
1293.7830;-21.2000;-15.4000;-5.8000
1293.9820;-21.1500;-15.3700;-5.7800
1294.1810;-21.0900;-15.3100;-5.7800
1294.3810;-21.0400;-15.2700;-5.7700
1294.5800;-20.9900;-15.2200;-5.7700
1294.7790;-20.9400;-15.1700;-5.7700
1294.9780;-20.9200;-15.1300;-5.7900
1295.1770;-20.8800;-15.0800;-5.8000
1295.3760;-20.8600;-15.0400;-5.8200
1295.5750;-20.8300;-14.9800;-5.8500
1295.7740;-20.8000;-14.9300;-5.8700
1295.9740;-20.7900;-14.8900;-5.9000
1296.1730;-20.7700;-14.8400;-5.9300
1296.3720;-20.7800;-14.8100;-5.9700
1296.5710;-20.7700;-14.7500;-6.0200
1296.7700;-20.7700;-14.7100;-6.0600
1296.9690;-20.8000;-14.6700;-6.1300
1297.1680;-20.8100;-14.6300;-6.1800
1297.3670;-20.8400;-14.6000;-6.2400
1297.5660;-20.8600;-14.5400;-6.3200
1297.7660;-20.8800;-14.5000;-6.3800
1297.9650;-20.9400;-14.4700;-6.4700
1298.1640;-20.9700;-14.4300;-6.5400
1298.3630;-21.0400;-14.4100;-6.6300
1298.5620;-21.0800;-14.3500;-6.7300
1298.7610;-21.1400;-14.3300;-6.8100
1298.9600;-21.2200;-14.2900;-6.9300
1299.1590;-21.2900;-14.2500;-7.0400
1299.3580;-21.3900;-14.2300;-7.1600
1299.5580;-21.4600;-14.1800;-7.2800
1299.7570;-21.5600;-14.1500;-7.4100
1299.9560;-21.6700;-14.1200;-7.5500
1300.1550;-21.7700;-14.0900;-7.6800
1300.3540;-21.9100;-14.0600;-7.8500
1300.5530;-22.0100;-14.0100;-8.0000
1300.7520;-22.1500;-14.0000;-8.1500
1300.9510;-22.2900;-13.9600;-8.3300
1301.1500;-22.4400;-13.9400;-8.5000
1301.3500;-22.6100;-13.9100;-8.7000
1301.5490;-22.7800;-13.8900;-8.8900
1301.7480;-22.9600;-13.8800;-9.0800
1301.9470;-23.1400;-13.8400;-9.3000
1302.1460;-23.3400;-13.8300;-9.5100
1302.3450;-23.5500;-13.8100;-9.7400
1302.5440;-23.7700;-13.7900;-9.9800
1302.7430;-24.0100;-13.7800;-10.2300
1302.9430;-24.2400;-13.7500;-10.4900
1303.1420;-24.5000;-13.7500;-10.7500
1303.3410;-24.7600;-13.7200;-11.0400
1303.5400;-25.0500;-13.7100;-11.3400
1303.7390;-25.3500;-13.7100;-11.6400
1303.9380;-25.6500;-13.6800;-11.9700
1304.1370;-25.9800;-13.6800;-12.3000
1304.3360;-26.3100;-13.6600;-12.6500
1304.5350;-26.6800;-13.6500;-13.0300
1304.7350;-27.0600;-13.6400;-13.4200
1304.9340;-27.4500;-13.6300;-13.8200
1305.1330;-27.8800;-13.6300;-14.2500
1305.3320;-28.3900;-13.6000;-14.7900
1305.5310;-28.7800;-13.6100;-15.1700
1305.7300;-29.2400;-13.6000;-15.6400
1305.9290;-29.7300;-13.5800;-16.1500
1306.1280;-30.2400;-13.6000;-16.6400
1306.3270;-30.7400;-13.5800;-17.1600
1306.5270;-31.2700;-13.5900;-17.6800
1306.7260;-31.7700;-13.5900;-18.1800
1306.9250;-32.2500;-13.5800;-18.6700
1307.1240;-32.7000;-13.6000;-19.1000
1307.3230;-33.0800;-13.5900;-19.4900
1307.5220;-33.4000;-13.6100;-19.7900
1307.7210;-33.5800;-13.6100;-19.9700
1307.9200;-33.6500;-13.6100;-20.0400
1308.1200;-33.6100;-13.6300;-19.9800
1308.3190;-33.4200;-13.6300;-19.7900
1308.5180;-33.1500;-13.6500;-19.5000
1308.7170;-32.7500;-13.6500;-19.1000
1308.9160;-32.3000;-13.6500;-18.6500
1309.1150;-31.8200;-13.6800;-18.1400
1309.3140;-31.2900;-13.6900;-17.6000
1309.5130;-30.7800;-13.7200;-17.0600
