Wavelength (nm);Intensity (dBm)
1131.0;1131.0
1200.0;-58.71
1200.199;-58.65
1200.398;-58.61
1200.597;-58.65
1200.797;-58.65
1200.996;-58.61
1201.195;-58.58
1201.394;-58.56
1201.593;-58.55
1201.792;-58.52
1201.991;-58.48
1202.19;-58.44
1202.389;-58.38
1202.589;-58.38
1202.788;-58.34
1202.987;-58.24
1203.186;-58.2
1203.385;-58.19
1203.584;-58.16
1203.783;-58.06
1203.982;-58.02
1204.181;-58.03
1204.381;-57.98
1204.58;-57.92
1204.779;-57.86
1204.978;-57.85
1205.177;-57.84
1205.376;-57.8
1205.575;-57.76
1205.774;-57.77
1205.974;-57.77
1206.173;-57.74
1206.372;-57.71
1206.571;-57.72
1206.77;-57.74
1206.969;-57.71
1207.168;-57.7
1207.367;-57.67
1207.566;-57.69
1207.766;-57.68
1207.965;-57.66
1208.164;-57.63
1208.363;-57.63
1208.562;-57.62
1208.761;-57.56
1208.96;-57.51
1209.159;-57.54
1209.358;-57.5
1209.558;-57.43
1209.757;-57.38
1209.956;-57.37
1210.155;-57.34
1210.354;-57.26
1210.553;-57.23
1210.752;-57.2
1210.951;-57.15
1211.15;-57.11
1211.35;-57.04
1211.549;-57.02
1211.748;-57.0
1211.947;-56.95
1212.146;-56.89
1212.345;-56.84
1212.544;-56.85
1212.743;-56.81
1212.943;-56.73
1213.142;-56.72
1213.341;-56.7
1213.54;-56.65
1213.739;-56.6
1213.938;-56.57
1214.137;-56.56
1214.336;-56.49
1214.535;-56.45
1214.735;-56.4
1214.934;-56.35
1215.133;-56.31
1215.332;-56.23
1215.531;-56.18
1215.73;-56.13
1215.929;-56.06
1216.128;-55.98
1216.327;-55.87
1216.527;-55.84
1216.726;-55.77
1216.925;-55.66
1217.124;-55.58
1217.323;-55.51
1217.522;-55.44
1217.721;-55.33
1217.92;-55.26
1218.12;-55.18
1218.319;-55.09
1218.518;-55.03
1218.717;-54.94
1218.916;-54.86
1219.115;-54.8
1219.314;-54.71
1219.513;-54.65
1219.712;-54.59
1219.912;-54.53
1220.111;-54.47
1220.31;-54.39
1220.509;-54.35
1220.708;-54.29
1220.907;-54.21
1221.106;-54.15
1221.305;-54.09
1221.504;-54.02
1221.704;-53.94
1221.903;-53.87
1222.102;-53.8
1222.301;-53.73
1222.5;-53.66
1222.699;-53.56
1222.898;-53.49
1223.097;-53.41
1223.297;-53.31
1223.496;-53.22
1223.695;-53.13
1223.894;-53.04
1224.093;-52.96
1224.292;-52.86
1224.491;-52.77
1224.69;-52.69
1224.889;-52.6
1225.089;-52.53
1225.288;-52.44
1225.487;-52.37
1225.686;-52.29
1225.885;-52.23
1226.084;-52.17
1226.283;-52.11
1226.482;-52.05
1226.681;-52.0
1226.881;-51.95
1227.08;-51.91
1227.279;-51.86
1227.478;-51.81
1227.677;-51.77
1227.876;-51.73
1228.075;-51.68
1228.274;-51.63
1228.474;-51.58
1228.673;-51.53
1228.872;-51.47
1229.071;-51.42
1229.27;-51.35
1229.469;-51.27
1229.668;-51.21
1229.867;-51.13
1230.066;-51.07
1230.266;-50.98
1230.465;-50.89
1230.664;-50.82
1230.863;-50.75
1231.062;-50.68
1231.261;-50.6
1231.46;-50.54
1231.659;-50.46
1231.858;-50.38
1232.058;-50.33
1232.257;-50.25
1232.456;-50.2
1232.655;-50.12
1232.854;-50.04
1233.053;-49.99
1233.252;-49.91
1233.451;-49.83
1233.65;-49.76
1233.85;-49.67
1234.049;-49.6
1234.248;-49.5
1234.447;-49.41
1234.646;-49.31
1234.845;-49.21
1235.044;-49.11
1235.243;-49.0
1235.443;-48.9
1235.642;-48.78
1235.841;-48.66
1236.04;-48.55
1236.239;-48.42
1236.438;-48.31
1236.637;-48.19
1236.836;-48.07
1237.035;-47.97
1237.235;-47.84
1237.434;-47.74
1237.633;-47.63
1237.832;-47.53
1238.031;-47.42
1238.23;-47.32
1238.429;-47.22
1238.628;-47.11
1238.827;-47.01
1239.027;-46.91
1239.226;-46.8
1239.425;-46.69
1239.624;-46.58
1239.823;-46.47
1240.022;-46.36
1240.221;-46.23
1240.42;-46.13
1240.62;-46.0
1240.819;-45.87
1241.018;-45.75
1241.217;-45.63
1241.416;-45.49
1241.615;-45.36
1241.814;-45.24
1242.013;-45.11
1242.212;-44.99
1242.412;-44.87
1242.611;-44.74
1242.81;-44.64
1243.009;-44.5
1243.208;-44.4
1243.407;-44.3
1243.606;-44.18
1243.805;-44.09
1244.004;-43.98
1244.204;-43.9
1244.403;-43.8
1244.602;-43.7
1244.801;-43.63
1245.0;-43.54
1245.199;-43.47
1245.398;-43.39
1245.597;-43.3
1245.797;-43.23
1245.996;-43.13
1246.195;-43.06
1246.394;-42.98
1246.593;-42.88
1246.792;-42.81
1246.991;-42.71
1247.19;-42.63
1247.389;-42.54
1247.589;-42.44
1247.788;-42.37
1247.987;-42.25
1248.186;-42.17
1248.385;-42.08
1248.584;-41.97
1248.783;-41.89
1248.982;-41.8
1249.181;-41.71
1249.381;-41.61
1249.58;-41.51
1249.779;-41.44
1249.978;-41.33
1250.177;-41.26
1250.376;-41.17
1250.575;-41.07
1250.774;-41.0
1250.974;-40.92
1251.173;-40.84
1251.372;-40.75
1251.571;-40.67
1251.77;-40.59
1251.969;-40.5
1252.168;-40.41
1252.367;-40.31
1252.566;-40.21
1252.766;-40.12
1252.965;-40.01
1253.164;-39.91
1253.363;-39.78
1253.562;-39.67
1253.761;-39.55
1253.96;-39.42
1254.159;-39.3
1254.358;-39.15
1254.558;-39.02
1254.757;-38.87
1254.956;-38.72
1255.155;-38.59
1255.354;-38.42
1255.553;-38.28
1255.752;-38.11
1255.951;-37.95
1256.15;-37.81
1256.35;-37.64
1256.549;-37.49
1256.748;-37.32
1256.947;-37.15
1257.146;-36.99
1257.345;-36.81
1257.544;-36.66
1257.743;-36.48
1257.943;-36.31
1258.142;-36.15
1258.341;-35.97
1258.54;-35.79
1258.739;-35.64
1258.938;-35.48
1259.137;-35.3
1259.336;-35.13
1259.535;-34.97
1259.735;-34.79
1259.934;-34.62
1260.133;-34.46
1260.332;-34.29
1260.531;-34.13
1260.73;-33.96
1260.929;-33.81
1261.128;-33.64
1261.327;-33.48
1261.527;-33.33
1261.726;-33.17
1261.925;-33.03
1262.124;-32.86
1262.323;-32.72
1262.522;-32.58
1262.721;-32.43
1262.92;-32.29
1263.12;-32.14
1263.319;-32.0
1263.518;-31.87
1263.717;-31.72
1263.916;-31.6
1264.115;-31.45
1264.314;-31.32
1264.513;-31.19
1264.712;-31.06
1264.912;-30.94
1265.111;-30.81
1265.31;-30.68
1265.509;-30.57
1265.708;-30.45
1265.907;-30.35
1266.106;-30.23
1266.305;-30.14
1266.504;-30.05
1266.704;-29.95
1266.903;-29.87
1267.102;-29.77
1267.301;-29.69
1267.5;-29.62
1267.699;-29.54
1267.898;-29.48
1268.097;-29.42
1268.297;-29.35
1268.496;-29.3
1268.695;-29.24
1268.894;-29.19
1269.093;-29.12
1269.292;-29.07
1269.491;-29.03
1269.69;-28.97
1269.889;-28.93
1270.089;-28.88
1270.288;-28.84
1270.487;-28.8
1270.686;-28.75
1270.885;-28.73
1271.084;-28.68
1271.283;-28.66
1271.482;-28.62
1271.681;-28.59
1271.881;-28.57
1272.08;-28.55
1272.279;-28.54
1272.478;-28.52
1272.677;-28.52
1272.876;-28.52
1273.075;-28.52
1273.274;-28.53
1273.474;-28.53
1273.673;-28.54
1273.872;-28.55
1274.071;-28.56
1274.27;-28.59
1274.469;-28.59
1274.668;-28.61
1274.867;-28.61
1275.066;-28.62
1275.266;-28.64
1275.465;-28.64
1275.664;-28.65
1275.863;-28.65
1276.062;-28.65
1276.261;-28.65
1276.46;-28.64
1276.659;-28.63
1276.858;-28.61
1277.058;-28.59
1277.257;-28.59
1277.456;-28.56
1277.655;-28.55
1277.854;-28.52
1278.053;-28.49
1278.252;-28.46
1278.451;-28.42
1278.65;-28.4
1278.85;-28.34
1279.049;-28.29
1279.248;-28.23
1279.447;-28.16
1279.646;-28.1
1279.845;-28.02
1280.044;-27.94
1280.243;-27.84
1280.443;-27.74
1280.642;-27.64
1280.841;-27.52
1281.04;-27.42
1281.239;-27.28
1281.438;-27.15
1281.637;-27.01
1281.836;-26.86
1282.035;-26.72
1282.235;-26.56
1282.434;-26.4
1282.633;-26.25
1282.832;-26.06
1283.031;-25.93
1283.23;-25.76
1283.429;-25.6
1283.628;-25.42
1283.827;-25.25
1284.027;-25.08
1284.226;-24.9
1284.425;-24.75
1284.624;-24.56
1284.823;-24.4
1285.022;-24.22
1285.221;-24.05
1285.42;-23.89
1285.62;-23.72
1285.819;-23.55
1286.018;-23.39
1286.217;-23.22
1286.416;-23.07
1286.615;-22.91
1286.814;-22.76
1287.013;-22.6
1287.212;-22.45
1287.412;-22.31
1287.611;-22.15
1287.81;-22.02
1288.009;-21.88
1288.208;-21.74
1288.407;-21.62
1288.606;-21.49
1288.805;-21.37
1289.004;-21.24
1289.204;-21.13
1289.403;-21.02
1289.602;-20.9
1289.801;-20.81
1290.0;-20.7
1290.199;-20.6
1290.398;-20.51
1290.597;-20.42
1290.797;-20.35
1290.996;-20.24
1291.195;-20.16
1291.394;-20.08
1291.593;-19.99
1291.792;-19.93
1291.991;-19.86
1292.19;-19.8
1292.389;-19.74
1292.589;-19.67
1292.788;-19.63
1292.987;-19.57
1293.186;-19.55
1293.385;-19.5
1293.584;-19.46
1293.783;-19.43
1293.982;-19.4
1294.181;-19.39
1294.381;-19.36
1294.58;-19.34
1294.779;-19.33
1294.978;-19.33
1295.177;-19.34
1295.376;-19.33
1295.575;-19.34
1295.774;-19.34
1295.974;-19.34
1296.173;-19.37
1296.372;-19.38
1296.571;-19.41
1296.77;-19.43
1296.969;-19.46
1297.168;-19.5
1297.367;-19.53
1297.566;-19.59
1297.766;-19.62
1297.965;-19.68
1298.164;-19.74
1298.363;-19.8
1298.562;-19.87
1298.761;-19.93
1298.96;-20.02
1299.159;-20.09
1299.358;-20.18
1299.558;-20.26
1299.757;-20.36
1299.956;-20.47
1300.155;-20.57
1300.354;-20.68
1300.553;-20.79
1300.752;-20.9
1300.951;-21.04
1301.15;-21.17
1301.35;-21.3
1301.549;-21.44
1301.748;-21.58
1301.947;-21.73
1302.146;-21.88
1302.345;-22.04
1302.544;-22.2
1302.743;-22.35
1302.943;-22.52
1303.142;-22.68
1303.341;-22.86
1303.54;-23.03
1303.739;-23.19
1303.938;-23.36
1304.137;-23.54
1304.336;-23.72
1304.535;-23.88
1304.735;-24.05
1304.934;-24.21
1305.133;-24.37
1305.332;-24.52
1305.531;-24.66
1305.73;-24.8
1305.929;-24.92
1306.128;-25.04
1306.327;-25.14
1306.527;-25.22
1306.726;-25.3
1306.925;-25.34
1307.124;-25.37
1307.323;-25.38
1307.522;-25.38
1307.721;-25.36
1307.92;-25.31
1308.12;-25.26
1308.319;-25.17
1308.518;-25.08
1308.717;-24.99
1308.916;-24.85
1309.115;-24.73
1309.314;-24.58
1309.513;-24.44
1309.712;-24.29
1309.912;-24.12
1310.111;-23.98
1310.31;-23.8
1310.509;-23.64
1310.708;-23.46
1310.907;-23.29
1311.106;-23.14
1311.305;-22.95
1311.504;-22.8
1311.704;-22.63
1311.903;-22.46
1312.102;-22.31
1312.301;-22.15
1312.5;-22.02
1312.699;-21.87
1312.898;-21.72
1313.097;-21.58
1313.297;-21.45
1313.496;-21.34
1313.695;-21.21
1313.894;-21.1
1314.093;-20.98
1314.292;-20.88
1314.491;-20.79
1314.69;-20.68
1314.889;-20.6
1315.089;-20.51
1315.288;-20.43
1315.487;-20.36
1315.686;-20.28
1315.885;-20.23
1316.084;-20.16
1316.283;-20.12
1316.482;-20.06
1316.681;-20.02
1316.881;-19.99
1317.08;-19.95
1317.279;-19.94
1317.478;-19.91
1317.677;-19.9
1317.876;-19.88
1318.075;-19.86
1318.274;-19.87
1318.474;-19.85
1318.673;-19.88
1318.872;-19.87
1319.071;-19.9
1319.27;-19.91
1319.469;-19.93
1319.668;-19.98
1319.867;-19.99
1320.066;-20.03
1320.266;-20.06
1320.465;-20.1
1320.664;-20.16
1320.863;-20.2
1321.062;-20.26
1321.261;-20.31
1321.46;-20.37
1321.659;-20.43
1321.858;-20.49
1322.058;-20.58
1322.257;-20.64
1322.456;-20.73
1322.655;-20.8
1322.854;-20.88
1323.053;-20.98
1323.252;-21.06
1323.451;-21.17
1323.65;-21.25
1323.85;-21.36
1324.049;-21.46
1324.248;-21.56
1324.447;-21.68
1324.646;-21.77
1324.845;-21.9
1325.044;-22.0
1325.243;-22.13
1325.443;-22.24
1325.642;-22.37
1325.841;-22.5
1326.04;-22.62
1326.239;-22.75
1326.438;-22.87
1326.637;-23.0
1326.836;-23.14
1327.035;-23.27
1327.235;-23.41
1327.434;-23.54
1327.633;-23.68
1327.832;-23.81
1328.031;-23.95
1328.23;-24.11
1328.429;-24.23
1328.628;-24.39
1328.827;-24.52
1329.027;-24.67
1329.226;-24.81
1329.425;-24.95
1329.624;-25.1
1329.823;-25.23
1330.022;-25.39
1330.221;-25.52
1330.42;-25.67
1330.62;-25.82
1330.819;-25.96
1331.018;-26.11
1331.217;-26.25
1331.416;-26.4
1331.615;-26.54
1331.814;-26.69
1332.013;-26.85
1332.212;-26.98
1332.412;-27.14
1332.611;-27.28
1332.81;-27.43
1333.009;-27.58
1333.208;-27.71
1333.407;-27.88
1333.606;-28.01
1333.805;-28.17
1334.004;-28.31
1334.204;-28.5
1334.403;-28.61
1334.602;-28.75
1334.801;-28.9
1335.0;-29.05
1335.199;-29.21
1335.398;-29.34
1335.597;-29.5
1335.797;-29.65
1335.996;-29.8
1336.195;-29.96
1336.394;-30.1
1336.593;-30.26
1336.792;-30.39
1336.991;-30.55
1337.19;-30.7
1337.389;-30.86
1337.589;-31.03
1337.788;-31.18
1337.987;-31.34
1338.186;-31.49
1338.385;-31.65
1338.584;-31.82
1338.783;-31.97
1338.982;-32.15
1339.181;-32.31
1339.381;-32.48
1339.58;-32.64
1339.779;-32.81
1339.978;-32.99
1340.177;-33.16
1340.376;-33.35
1340.575;-33.53
1340.774;-33.7
1340.974;-33.88
1341.173;-34.05
1341.372;-34.25
1341.571;-34.42
1341.77;-34.61
1341.969;-34.8
1342.168;-34.98
1342.367;-35.18
1342.566;-35.36
1342.766;-35.56
1342.965;-35.75
1343.164;-35.95
1343.363;-36.15
1343.562;-36.34
1343.761;-36.56
1343.96;-36.76
1344.159;-36.97
1344.358;-37.18
1344.558;-37.39
1344.757;-37.61
1344.956;-37.81
1345.155;-38.02
1345.354;-38.22
1345.553;-38.48
1345.752;-38.65
1345.951;-38.86
1346.15;-39.09
1346.35;-39.31
1346.549;-39.55
1346.748;-39.76
1346.947;-39.98
1347.146;-40.2
1347.345;-40.4
1347.544;-40.67
1347.743;-40.93
1347.943;-41.19
1348.142;-41.41
1348.341;-41.64
1348.54;-41.84
1348.739;-42.04
1348.938;-42.26
1349.137;-42.46
1349.336;-42.65
1349.535;-42.87
1349.735;-43.06
1349.934;-43.29
1350.133;-43.52
1350.332;-43.8
1350.531;-44.05
1350.73;-44.26
1350.929;-44.46
1351.128;-44.6
1351.327;-44.8
1351.527;-45.0
1351.726;-45.26
1351.925;-45.47
1352.124;-45.66
1352.323;-45.87
1352.522;-46.07
1352.721;-46.24
1352.92;-46.41
1353.12;-46.67
1353.319;-46.78
1353.518;-46.94
1353.717;-47.13
1353.916;-47.2
1354.115;-47.33
1354.314;-47.54
1354.513;-47.7
1354.712;-47.99
1354.912;-48.24
1355.111;-48.37
1355.31;-48.5
1355.509;-48.41
1355.708;-48.61
1355.907;-48.83
1356.106;-48.92
1356.305;-48.93
1356.504;-48.98
1356.704;-48.81
1356.903;-48.89
1357.102;-49.18
1357.301;-49.32
1357.5;-49.41
1357.699;-49.49
1357.898;-49.47
1358.097;-49.42
1358.297;-49.5
1358.496;-49.63
1358.695;-49.66
1358.894;-49.72
1359.093;-49.76
1359.292;-49.7
1359.491;-49.97
1359.69;-50.16
1359.889;-50.25
1360.089;-50.2
1360.288;-50.13
1360.487;-50.0
1360.686;-50.06
1360.885;-50.3
1361.084;-50.49
1361.283;-50.55
1361.482;-50.61
1361.681;-50.74
1361.881;-50.76
1362.08;-50.88
1362.279;-51.24
1362.478;-51.36
1362.677;-51.41
1362.876;-51.18
1363.075;-51.04
1363.274;-50.72
1363.474;-50.72
1363.673;-50.74
1363.872;-50.8
1364.071;-50.95
1364.27;-51.06
1364.469;-51.31
1364.668;-51.75
1364.867;-51.91
1365.066;-51.82
1365.266;-51.94
1365.465;-51.83
1365.664;-51.83
1365.863;-51.83
1366.062;-51.78
1366.261;-51.72
1366.46;-51.76
1366.659;-51.88
1366.858;-52.09
1367.058;-52.18
1367.257;-52.26
1367.456;-52.5
1367.655;-52.66
1367.854;-52.92
1368.053;-53.0
1368.252;-52.97
1368.451;-53.29
1368.65;-53.36
1368.85;-53.46
1369.049;-53.43
1369.248;-53.39
1369.447;-53.3
1369.646;-53.41
1369.845;-53.73
1370.044;-53.93
1370.243;-54.07
1370.443;-54.13
1370.642;-54.16
1370.841;-54.48
1371.04;-54.76
1371.239;-54.96
1371.438;-54.99
1371.637;-54.99
1371.836;-54.97
1372.035;-55.19
1372.235;-55.42
1372.434;-55.54
1372.633;-55.66
1372.832;-55.72
1373.031;-55.8
1373.23;-55.95
1373.429;-56.15
1373.628;-56.3
1373.827;-56.41
1374.027;-56.58
1374.226;-56.7
1374.425;-56.92
1374.624;-57.1
1374.823;-57.34
1375.022;-57.57
1375.221;-57.71
1375.42;-57.83
1375.62;-57.97
1375.819;-58.16
1376.018;-58.35
1376.217;-58.61
1376.416;-58.75
1376.615;-58.91
1376.814;-59.14
1377.013;-59.43
1377.212;-59.7
1377.412;-59.81
1377.611;-60.0
1377.81;-60.01
1378.009;-60.14
1378.208;-60.31
1378.407;-60.53
1378.606;-60.89
1378.805;-61.22
1379.004;-61.44
1379.204;-61.57
1379.403;-61.61
1379.602;-61.64
1379.801;-61.73
1380.0;-61.92
1380.199;-62.14
1380.398;-62.4
1380.597;-63.01
1380.797;-63.44
1380.996;-63.66
1381.195;-63.68
1381.394;-63.43
1381.593;-63.19
1381.792;-63.24
1381.991;-63.27
1382.19;-63.36
1382.389;-63.67
1382.589;-64.18
1382.788;-64.65
1382.987;-64.82
1383.186;-64.53
1383.385;-64.24
1383.584;-63.97
1383.783;-64.03
1383.982;-64.06
1384.181;-64.05
1384.381;-64.02
1384.58;-63.86
1384.779;-63.93
1384.978;-64.12
1385.177;-64.23
1385.376;-64.18
1385.575;-64.08
1385.774;-64.0
1385.974;-63.91
1386.173;-63.89
1386.372;-63.9
1386.571;-63.84
1386.77;-63.72
1386.969;-63.69
1387.168;-63.58
1387.367;-63.53
1387.566;-63.52
1387.766;-63.69
1387.965;-63.86
1388.164;-64.05
1388.363;-64.08
1388.562;-63.87
1388.761;-63.66
1388.96;-63.56
1389.159;-63.41
1389.358;-63.36
1389.558;-63.34
1389.757;-63.33
1389.956;-63.39
1390.155;-63.4
1390.354;-63.36
1390.553;-63.32
1390.752;-63.26
1390.951;-63.3
1391.15;-63.29
1391.35;-63.27
1391.549;-63.27
1391.748;-63.33
1391.947;-63.33
1392.146;-63.46
1392.345;-63.65
1392.544;-63.99
1392.743;-64.11
1392.943;-63.96
1393.142;-63.83
1393.341;-63.55
1393.54;-63.47
1393.739;-63.51
1393.938;-63.54
1394.137;-63.6
1394.336;-63.62
1394.535;-63.75
1394.735;-63.84
1394.934;-64.03
1395.133;-64.27
1395.332;-64.35
1395.531;-64.46
1395.73;-64.5
1395.929;-64.44
1396.128;-64.41
1396.327;-64.59
1396.527;-64.83
1396.726;-65.03
1396.925;-65.03
1397.124;-64.86
1397.323;-64.81
1397.522;-64.8
1397.721;-64.85
1397.92;-64.96
1398.12;-65.05
1398.319;-65.13
1398.518;-65.27
1398.717;-65.4
1398.916;-65.5
1399.115;-65.59
1399.314;-65.8
1399.513;-66.11
1399.712;-66.33
1399.912;-66.52
1400.111;-66.75
1400.31;-66.74
1400.509;-66.95
1400.708;-67.34
1400.907;-67.57
1401.106;-67.51
1401.305;-67.78
1401.504;-67.74
1401.704;-67.83
1401.903;-68.01
1402.102;-68.08
1402.301;-68.18
1402.5;-68.32
1402.699;-68.6
1402.898;-68.76
1403.097;-68.9
1403.297;-69.05
1403.496;-69.29
1403.695;-69.57
1403.894;-69.79
1404.093;-70.0
1404.292;-70.51
1404.491;-70.61
1404.69;-70.8
1404.889;-71.34
1405.089;-72.07
1405.288;-71.96
1405.487;-72.11
1405.686;-71.98
1405.885;-72.13
1406.084;-72.4
1406.283;-72.35
1406.482;-72.63
1406.681;-73.38
1406.881;-73.49
1407.08;-73.87
1407.279;-73.71
1407.478;-74.44
1407.677;-74.29
1407.876;-74.93
1408.075;-74.91
1408.274;-74.86
1408.474;-75.33
1408.673;-74.95
1408.872;-75.69
1409.071;-76.49
1409.27;-76.47
1409.469;-76.41
1409.668;-76.42
1409.867;-76.75
1410.066;-77.18
1410.266;-76.51
1410.465;-76.7
1410.664;-76.92
1410.863;-77.03
1411.062;-77.15
1411.261;-76.93
1411.46;-76.79
1411.659;-77.13
1411.858;-77.22
1412.058;-76.97
1412.257;-76.47
1412.456;-76.72
1412.655;-77.31
1412.854;-77.03
1413.053;-76.32
1413.252;-76.32
1413.451;-77.17
1413.65;-76.13
1413.85;-76.64
1414.049;-76.13
1414.248;-76.71
1414.447;-76.62
1414.646;-76.07
1414.845;-76.52
1415.044;-76.24
1415.243;-76.62
1415.443;-75.81
1415.642;-76.01
1415.841;-76.13
1416.04;-75.92
1416.239;-75.23
1416.438;-75.98
1416.637;-75.44
1416.836;-75.31
1417.035;-76.01
1417.235;-75.69
1417.434;-76.59
1417.633;-75.59
1417.832;-75.41
1418.031;-75.26
1418.23;-75.11
1418.429;-75.66
1418.628;-75.92
1418.827;-75.87
1419.027;-75.93
1419.226;-75.71
1419.425;-75.47
1419.624;-76.24
1419.823;-75.8
1420.022;-76.1
1420.221;-75.87
1420.42;-75.51
1420.62;-75.52
1420.819;-76.1
1421.018;-75.71
1421.217;-75.99
1421.416;-76.32
1421.615;-75.93
1421.814;-75.56
1422.013;-76.17
1422.212;-76.2
1422.412;-76.6
1422.611;-76.0
1422.81;-76.81
1423.009;-76.25
1423.208;-76.44
1423.407;-76.26
1423.606;-77.31
1423.805;-76.17
1424.004;-76.86
1424.204;-76.6
1424.403;-77.03
1424.602;-76.41
1424.801;-76.49
1425.0;-76.43
