Wavelength (nm);Intensity (dBm)
1131.0;1131.0
1200.0;-56.78
1200.199;-56.71
1200.398;-56.68
1200.597;-56.73
1200.797;-56.75
1200.996;-56.7
1201.195;-56.69
1201.394;-56.69
1201.593;-56.67
1201.792;-56.65
1201.991;-56.62
1202.19;-56.56
1202.389;-56.53
1202.589;-56.52
1202.788;-56.49
1202.987;-56.39
1203.186;-56.36
1203.385;-56.35
1203.584;-56.29
1203.783;-56.21
1203.982;-56.17
1204.181;-56.17
1204.381;-56.11
1204.58;-56.03
1204.779;-56.0
1204.978;-55.99
1205.177;-55.95
1205.376;-55.88
1205.575;-55.85
1205.774;-55.87
1205.974;-55.85
1206.173;-55.8
1206.372;-55.77
1206.571;-55.78
1206.77;-55.76
1206.969;-55.72
1207.168;-55.69
1207.367;-55.66
1207.566;-55.65
1207.766;-55.62
1207.965;-55.57
1208.164;-55.52
1208.363;-55.51
1208.562;-55.47
1208.761;-55.39
1208.96;-55.31
1209.159;-55.29
1209.358;-55.24
1209.558;-55.14
1209.757;-55.09
1209.956;-55.05
1210.155;-54.98
1210.354;-54.89
1210.553;-54.83
1210.752;-54.8
1210.951;-54.72
1211.15;-54.65
1211.35;-54.61
1211.549;-54.56
1211.748;-54.52
1211.947;-54.46
1212.146;-54.38
1212.345;-54.35
1212.544;-54.33
1212.743;-54.28
1212.943;-54.2
1213.142;-54.17
1213.341;-54.16
1213.54;-54.08
1213.739;-54.02
1213.938;-53.99
1214.137;-53.94
1214.336;-53.88
1214.535;-53.81
1214.735;-53.78
1214.934;-53.71
1215.133;-53.64
1215.332;-53.58
1215.531;-53.5
1215.73;-53.45
1215.929;-53.38
1216.128;-53.28
1216.327;-53.21
1216.527;-53.16
1216.726;-53.1
1216.925;-53.0
1217.124;-52.93
1217.323;-52.89
1217.522;-52.81
1217.721;-52.74
1217.92;-52.67
1218.12;-52.62
1218.319;-52.55
1218.518;-52.5
1218.717;-52.45
1218.916;-52.38
1219.115;-52.33
1219.314;-52.28
1219.513;-52.23
1219.712;-52.2
1219.912;-52.15
1220.111;-52.09
1220.31;-52.04
1220.509;-52.01
1220.708;-51.97
1220.907;-51.9
1221.106;-51.85
1221.305;-51.81
1221.504;-51.74
1221.704;-51.69
1221.903;-51.62
1222.102;-51.54
1222.301;-51.49
1222.5;-51.4
1222.699;-51.33
1222.898;-51.25
1223.097;-51.16
1223.297;-51.08
1223.496;-50.97
1223.695;-50.91
1223.894;-50.81
1224.093;-50.7
1224.292;-50.62
1224.491;-50.52
1224.69;-50.44
1224.889;-50.34
1225.089;-50.25
1225.288;-50.17
1225.487;-50.07
1225.686;-50.0
1225.885;-49.91
1226.084;-49.83
1226.283;-49.77
1226.482;-49.69
1226.681;-49.63
1226.881;-49.56
1227.08;-49.48
1227.279;-49.43
1227.478;-49.35
1227.677;-49.29
1227.876;-49.22
1228.075;-49.14
1228.274;-49.08
1228.474;-49.0
1228.673;-48.93
1228.872;-48.84
1229.071;-48.75
1229.27;-48.67
1229.469;-48.57
1229.668;-48.49
1229.867;-48.38
1230.066;-48.29
1230.266;-48.19
1230.465;-48.08
1230.664;-47.99
1230.863;-47.91
1231.062;-47.82
1231.261;-47.74
1231.46;-47.67
1231.659;-47.6
1231.858;-47.51
1232.058;-47.45
1232.257;-47.39
1232.456;-47.33
1232.655;-47.28
1232.854;-47.21
1233.053;-47.17
1233.252;-47.12
1233.451;-47.06
1233.65;-47.04
1233.85;-46.97
1234.049;-46.94
1234.248;-46.88
1234.447;-46.83
1234.646;-46.79
1234.845;-46.74
1235.044;-46.69
1235.243;-46.63
1235.443;-46.57
1235.642;-46.54
1235.841;-46.47
1236.04;-46.44
1236.239;-46.38
1236.438;-46.33
1236.637;-46.31
1236.836;-46.27
1237.035;-46.25
1237.235;-46.22
1237.434;-46.2
1237.633;-46.19
1237.832;-46.19
1238.031;-46.19
1238.23;-46.18
1238.429;-46.18
1238.628;-46.2
1238.827;-46.19
1239.027;-46.22
1239.226;-46.21
1239.425;-46.22
1239.624;-46.23
1239.823;-46.23
1240.022;-46.24
1240.221;-46.22
1240.42;-46.22
1240.62;-46.21
1240.819;-46.2
1241.018;-46.18
1241.217;-46.15
1241.416;-46.14
1241.615;-46.09
1241.814;-46.07
1242.013;-46.05
1242.212;-46.02
1242.412;-46.01
1242.611;-45.96
1242.81;-45.95
1243.009;-45.91
1243.208;-45.89
1243.407;-45.87
1243.606;-45.84
1243.805;-45.82
1244.004;-45.79
1244.204;-45.76
1244.403;-45.74
1244.602;-45.7
1244.801;-45.68
1245.0;-45.63
1245.199;-45.59
1245.398;-45.55
1245.597;-45.48
1245.797;-45.42
1245.996;-45.33
1246.195;-45.26
1246.394;-45.17
1246.593;-45.06
1246.792;-44.96
1246.991;-44.82
1247.19;-44.69
1247.389;-44.56
1247.589;-44.4
1247.788;-44.25
1247.987;-44.07
1248.186;-43.91
1248.385;-43.73
1248.584;-43.54
1248.783;-43.37
1248.982;-43.18
1249.181;-43.0
1249.381;-42.82
1249.58;-42.62
1249.779;-42.45
1249.978;-42.25
1250.177;-42.08
1250.376;-41.91
1250.575;-41.73
1250.774;-41.57
1250.974;-41.4
1251.173;-41.24
1251.372;-41.08
1251.571;-40.92
1251.77;-40.77
1251.969;-40.6
1252.168;-40.44
1252.367;-40.27
1252.566;-40.12
1252.766;-39.96
1252.965;-39.79
1253.164;-39.63
1253.363;-39.45
1253.562;-39.29
1253.761;-39.13
1253.96;-38.97
1254.159;-38.81
1254.358;-38.63
1254.558;-38.48
1254.757;-38.33
1254.956;-38.17
1255.155;-38.04
1255.354;-37.88
1255.553;-37.75
1255.752;-37.63
1255.951;-37.5
1256.15;-37.39
1256.35;-37.26
1256.549;-37.16
1256.748;-37.06
1256.947;-36.95
1257.146;-36.86
1257.345;-36.75
1257.544;-36.67
1257.743;-36.58
1257.943;-36.48
1258.142;-36.41
1258.341;-36.32
1258.54;-36.24
1258.739;-36.16
1258.938;-36.07
1259.137;-36.02
1259.336;-35.91
1259.535;-35.88
1259.735;-35.8
1259.934;-35.74
1260.133;-35.69
1260.332;-35.64
1260.531;-35.61
1260.73;-35.55
1260.929;-35.53
1261.128;-35.49
1261.327;-35.46
1261.527;-35.46
1261.726;-35.43
1261.925;-35.43
1262.124;-35.41
1262.323;-35.41
1262.522;-35.43
1262.721;-35.43
1262.92;-35.44
1263.12;-35.44
1263.319;-35.45
1263.518;-35.49
1263.717;-35.5
1263.916;-35.53
1264.115;-35.54
1264.314;-35.57
1264.513;-35.62
1264.712;-35.65
1264.912;-35.7
1265.111;-35.74
1265.31;-35.79
1265.509;-35.87
1265.708;-35.92
1265.907;-36.01
1266.106;-36.08
1266.305;-36.16
1266.504;-36.27
1266.704;-36.36
1266.903;-36.48
1267.102;-36.58
1267.301;-36.7
1267.5;-36.83
1267.699;-36.95
1267.898;-37.09
1268.097;-37.22
1268.297;-37.35
1268.496;-37.49
1268.695;-37.61
1268.894;-37.75
1269.093;-37.85
1269.292;-37.96
1269.491;-38.07
1269.69;-38.18
1269.889;-38.24
1270.089;-38.29
1270.288;-38.35
1270.487;-38.37
1270.686;-38.39
1270.885;-38.38
1271.084;-38.35
1271.283;-38.31
1271.482;-38.24
1271.681;-38.16
1271.881;-38.05
1272.08;-37.92
1272.279;-37.79
1272.478;-37.63
1272.677;-37.47
1272.876;-37.28
1273.075;-37.07
1273.274;-36.88
1273.474;-36.65
1273.673;-36.43
1273.872;-36.18
1274.071;-35.91
1274.27;-35.69
1274.469;-35.44
1274.668;-35.19
1274.867;-34.92
1275.066;-34.66
1275.266;-34.39
1275.465;-34.12
1275.664;-33.85
1275.863;-33.58
1276.062;-33.32
1276.261;-33.05
1276.46;-32.79
1276.659;-32.52
1276.858;-32.26
1277.058;-32.02
1277.257;-31.76
1277.456;-31.53
1277.655;-31.29
1277.854;-31.05
1278.053;-30.84
1278.252;-30.61
1278.451;-30.41
1278.65;-30.2
1278.85;-29.99
1279.049;-29.8
1279.248;-29.61
1279.447;-29.43
1279.646;-29.24
1279.845;-29.06
1280.044;-28.88
1280.243;-28.71
1280.443;-28.55
1280.642;-28.38
1280.841;-28.21
1281.04;-28.05
1281.239;-27.89
1281.438;-27.75
1281.637;-27.59
1281.836;-27.45
1282.035;-27.31
1282.235;-27.16
1282.434;-27.04
1282.633;-26.92
1282.832;-26.8
1283.031;-26.68
1283.23;-26.57
1283.429;-26.47
1283.628;-26.36
1283.827;-26.27
1284.027;-26.17
1284.226;-26.07
1284.425;-25.99
1284.624;-25.91
1284.823;-25.84
1285.022;-25.76
1285.221;-25.71
1285.42;-25.62
1285.62;-25.56
1285.819;-25.51
1286.018;-25.46
1286.217;-25.42
1286.416;-25.36
1286.615;-25.33
1286.814;-25.31
1287.013;-25.27
1287.212;-25.26
1287.412;-25.22
1287.611;-25.22
1287.81;-25.21
1288.009;-25.21
1288.208;-25.22
1288.407;-25.22
1288.606;-25.24
1288.805;-25.27
1289.004;-25.28
1289.204;-25.33
1289.403;-25.35
1289.602;-25.4
1289.801;-25.45
1290.0;-25.5
1290.199;-25.57
1290.398;-25.62
1290.597;-25.71
1290.797;-25.78
1290.996;-25.86
1291.195;-25.96
1291.394;-26.05
1291.593;-26.15
1291.792;-26.25
1291.991;-26.37
1292.19;-26.5
1292.389;-26.62
1292.589;-26.77
1292.788;-26.9
1292.987;-27.05
1293.186;-27.23
1293.385;-27.39
1293.584;-27.57
1293.783;-27.74
1293.982;-27.95
1294.181;-28.14
1294.381;-28.4
1294.58;-28.56
1294.779;-28.78
1294.978;-29.02
1295.177;-29.24
1295.376;-29.48
1295.575;-29.69
1295.774;-29.92
1295.974;-30.14
1296.173;-30.36
1296.372;-30.59
1296.571;-30.77
1296.77;-30.96
1296.969;-31.14
1297.168;-31.28
1297.367;-31.41
1297.566;-31.49
1297.766;-31.55
1297.965;-31.56
1298.164;-31.54
1298.363;-31.49
1298.562;-31.38
1298.761;-31.25
1298.96;-31.07
1299.159;-30.87
1299.358;-30.65
1299.558;-30.38
1299.757;-30.12
1299.956;-29.83
1300.155;-29.53
1300.354;-29.23
1300.553;-28.9
1300.752;-28.6
1300.951;-28.28
1301.15;-27.98
1301.35;-27.67
1301.549;-27.37
1301.748;-27.08
1301.947;-26.77
1302.146;-26.5
1302.345;-26.21
1302.544;-25.91
1302.743;-25.68
1302.943;-25.41
1303.142;-25.18
1303.341;-24.92
1303.54;-24.7
1303.739;-24.45
1303.938;-24.23
1304.137;-24.02
1304.336;-23.8
1304.535;-23.62
1304.735;-23.41
1304.934;-23.22
1305.133;-23.04
1305.332;-22.86
1305.531;-22.71
1305.73;-22.53
1305.929;-22.38
1306.128;-22.24
1306.327;-22.09
1306.527;-21.97
1306.726;-21.83
1306.925;-21.71
1307.124;-21.59
1307.323;-21.47
1307.522;-21.38
1307.721;-21.27
1307.92;-21.18
1308.12;-21.09
1308.319;-21.0
1308.518;-20.93
1308.717;-20.85
1308.916;-20.78
1309.115;-20.72
1309.314;-20.65
1309.513;-20.61
1309.712;-20.56
1309.912;-20.52
1310.111;-20.48
1310.31;-20.45
1310.509;-20.43
1310.708;-20.39
1310.907;-20.39
1311.106;-20.37
1311.305;-20.36
1311.504;-20.37
1311.704;-20.37
1311.903;-20.38
1312.102;-20.38
1312.301;-20.42
1312.5;-20.44
1312.699;-20.47
1312.898;-20.51
1313.097;-20.54
1313.297;-20.6
1313.496;-20.65
1313.695;-20.71
1313.894;-20.77
1314.093;-20.84
1314.292;-20.92
1314.491;-20.99
1314.69;-21.08
1314.889;-21.16
1315.089;-21.25
1315.288;-21.35
1315.487;-21.46
1315.686;-21.58
1315.885;-21.68
1316.084;-21.8
1316.283;-21.92
1316.482;-22.06
1316.681;-22.21
1316.881;-22.34
1317.08;-22.5
1317.279;-22.65
1317.478;-22.81
1317.677;-22.98
1317.876;-23.14
1318.075;-23.33
1318.274;-23.5
1318.474;-23.68
1318.673;-23.88
1318.872;-24.06
1319.071;-24.28
1319.27;-24.48
1319.469;-24.69
1319.668;-24.9
1319.867;-25.11
1320.066;-25.34
1320.266;-25.55
1320.465;-25.78
1320.664;-26.01
1320.863;-26.22
1321.062;-26.45
1321.261;-26.67
1321.46;-26.91
1321.659;-27.12
1321.858;-27.33
1322.058;-27.55
1322.257;-27.76
1322.456;-27.98
1322.655;-28.17
1322.854;-28.37
1323.053;-28.58
1323.252;-28.73
1323.451;-28.89
1323.65;-29.04
1323.85;-29.18
1324.049;-29.31
1324.248;-29.44
1324.447;-29.53
1324.646;-29.61
1324.845;-29.69
1325.044;-29.74
1325.243;-29.8
1325.443;-29.83
1325.642;-29.87
1325.841;-29.88
1326.04;-29.88
1326.239;-29.89
1326.438;-29.87
1326.637;-29.86
1326.836;-29.83
1327.035;-29.8
1327.235;-29.78
1327.434;-29.74
1327.633;-29.72
1327.832;-29.67
1328.031;-29.64
1328.23;-29.61
1328.429;-29.57
1328.628;-29.56
1328.827;-29.52
1329.027;-29.5
1329.226;-29.47
1329.425;-29.45
1329.624;-29.44
1329.823;-29.42
1330.022;-29.41
1330.221;-29.4
1330.42;-29.4
1330.62;-29.41
1330.819;-29.41
1331.018;-29.43
1331.217;-29.44
1331.416;-29.47
1331.615;-29.5
1331.814;-29.53
1332.013;-29.58
1332.212;-29.61
1332.412;-29.67
1332.611;-29.72
1332.81;-29.78
1333.009;-29.85
1333.208;-29.91
1333.407;-29.99
1333.606;-30.07
1333.805;-30.15
1334.004;-30.24
1334.204;-30.33
1334.403;-30.44
1334.602;-30.54
1334.801;-30.66
1335.0;-30.76
1335.199;-30.89
1335.398;-31.01
1335.597;-31.14
1335.797;-31.29
1335.996;-31.43
1336.195;-31.58
1336.394;-31.73
1336.593;-31.88
1336.792;-32.04
1336.991;-32.21
1337.19;-32.39
1337.389;-32.56
1337.589;-32.75
1337.788;-32.94
1337.987;-33.13
1338.186;-33.34
1338.385;-33.54
1338.584;-33.75
1338.783;-33.96
1338.982;-34.18
1339.181;-34.42
1339.381;-34.65
1339.58;-34.9
1339.779;-35.14
1339.978;-35.39
1340.177;-35.66
1340.376;-35.92
1340.575;-36.21
1340.774;-36.49
1340.974;-36.77
1341.173;-37.05
1341.372;-37.35
1341.571;-37.66
1341.77;-37.97
1341.969;-38.3
1342.168;-38.69
1342.367;-38.96
1342.566;-39.29
1342.766;-39.65
1342.965;-40.01
1343.164;-40.39
1343.363;-40.78
1343.562;-41.15
1343.761;-41.56
1343.96;-41.98
1344.159;-42.4
1344.358;-42.85
1344.558;-43.29
1344.757;-43.76
1344.956;-44.22
1345.155;-44.71
1345.354;-45.21
1345.553;-45.71
1345.752;-46.25
1345.951;-46.78
1346.15;-47.35
1346.35;-47.93
1346.549;-48.67
1346.748;-49.16
1346.947;-49.79
1347.146;-50.45
1347.345;-51.09
1347.544;-51.81
1347.743;-52.54
1347.943;-53.26
1348.142;-53.97
1348.341;-54.63
1348.54;-55.21
1348.739;-55.74
1348.938;-56.2
1349.137;-56.54
1349.336;-56.72
1349.535;-56.82
1349.735;-56.76
1349.934;-56.62
1350.133;-56.42
1350.332;-56.2
1350.531;-55.89
1350.73;-55.49
1350.929;-55.07
1351.128;-54.63
1351.327;-54.24
1351.527;-53.9
1351.726;-53.6
1351.925;-53.28
1352.124;-52.95
1352.323;-52.67
1352.522;-52.43
1352.721;-52.13
1352.92;-51.89
1353.12;-51.75
1353.319;-51.48
1353.518;-51.27
1353.717;-51.1
1353.916;-50.87
1354.115;-50.69
1354.314;-50.62
1354.513;-50.5
1354.712;-50.54
1354.912;-50.54
1355.111;-50.44
1355.31;-50.31
1355.509;-50.05
1355.708;-50.11
1355.907;-50.15
1356.106;-50.07
1356.305;-49.93
1356.504;-49.82
1356.704;-49.57
1356.903;-49.53
1357.102;-49.73
1357.301;-49.77
1357.5;-49.76
1357.699;-49.79
1357.898;-49.68
1358.097;-49.6
1358.297;-49.63
1358.496;-49.73
1358.695;-49.73
1358.894;-49.75
1359.093;-49.79
1359.292;-49.71
1359.491;-49.99
1359.69;-50.18
1359.889;-50.27
1360.089;-50.24
1360.288;-50.18
1360.487;-50.1
1360.686;-50.17
1360.885;-50.46
1361.084;-50.68
1361.283;-50.78
1361.482;-50.91
1361.681;-51.08
1361.881;-51.17
1362.08;-51.34
1362.279;-51.76
1362.478;-51.95
1362.677;-52.07
1362.876;-51.95
1363.075;-51.89
1363.274;-51.65
1363.474;-51.73
1363.673;-51.83
1363.872;-51.99
1364.071;-52.22
1364.27;-52.45
1364.469;-52.79
1364.668;-53.34
1364.867;-53.61
1365.066;-53.64
1365.266;-53.89
1365.465;-53.87
1365.664;-54.02
1365.863;-54.14
1366.062;-54.22
1366.261;-54.29
1366.46;-54.44
1366.659;-54.71
1366.858;-55.05
1367.058;-55.3
1367.257;-55.52
1367.456;-55.91
1367.655;-56.21
1367.854;-56.61
1368.053;-56.89
1368.252;-57.02
1368.451;-57.5
1368.65;-57.72
1368.85;-58.0
1369.049;-58.17
1369.248;-58.3
1369.447;-58.38
1369.646;-58.72
1369.845;-59.18
1370.044;-59.56
1370.243;-59.91
1370.443;-60.16
1370.642;-60.36
1370.841;-60.85
1371.04;-61.31
1371.239;-61.71
1371.438;-61.92
1371.637;-62.08
1371.836;-62.21
1372.035;-62.57
1372.235;-62.95
1372.434;-63.19
1372.633;-63.42
1372.832;-63.53
1373.031;-63.62
1373.23;-63.81
1373.429;-63.99
1373.628;-64.16
1373.827;-64.21
1374.027;-64.26
1374.226;-64.28
1374.425;-64.29
1374.624;-64.3
1374.823;-64.37
1375.022;-64.36
1375.221;-64.25
1375.42;-64.09
1375.62;-63.96
1375.819;-63.83
1376.018;-63.78
1376.217;-63.62
1376.416;-63.46
1376.615;-63.29
1376.814;-63.2
1377.013;-63.19
1377.212;-63.09
1377.412;-62.89
1377.611;-62.67
1377.81;-62.41
1378.009;-62.18
1378.208;-62.04
1378.407;-62.0
1378.606;-62.0
1378.805;-62.06
1379.004;-61.94
1379.204;-61.78
1379.403;-61.52
1379.602;-61.3
1379.801;-61.14
1380.0;-61.06
1380.199;-61.08
1380.398;-61.07
1380.597;-61.48
1380.797;-61.74
1380.996;-61.7
1381.195;-61.53
1381.394;-61.09
1381.593;-60.69
1381.792;-60.6
1381.991;-60.5
1382.19;-60.46
1382.389;-60.65
1382.589;-61.08
1382.788;-61.43
1382.987;-61.55
1383.186;-61.22
1383.385;-60.82
1383.584;-60.52
1383.783;-60.56
1383.982;-60.61
1384.181;-60.58
1384.381;-60.51
1384.58;-60.4
1384.779;-60.43
1384.978;-60.65
1385.177;-60.79
1385.376;-60.87
1385.575;-60.76
1385.774;-60.77
1385.974;-60.69
1386.173;-60.72
1386.372;-60.83
1386.571;-60.85
1386.77;-60.83
1386.969;-60.88
1387.168;-60.88
1387.367;-60.93
1387.566;-61.01
1387.766;-61.3
1387.965;-61.53
1388.164;-61.82
1388.363;-61.97
1388.562;-61.93
1388.761;-61.84
1388.96;-61.84
1389.159;-61.82
1389.358;-61.87
1389.558;-61.99
1389.757;-62.13
1389.956;-62.3
1390.155;-62.46
1390.354;-62.56
1390.553;-62.68
1390.752;-62.75
1390.951;-62.91
1391.15;-63.08
1391.35;-63.2
1391.549;-63.38
1391.748;-63.51
1391.947;-63.7
1392.146;-63.98
1392.345;-64.33
1392.544;-64.84
1392.743;-65.11
1392.943;-65.19
1393.142;-65.23
1393.341;-65.13
1393.54;-65.22
1393.739;-65.41
1393.938;-65.67
1394.137;-65.93
1394.336;-66.15
1394.535;-66.35
1394.735;-66.68
1394.934;-67.15
1395.133;-67.46
1395.332;-67.85
1395.531;-68.24
1395.73;-68.47
1395.929;-68.61
1396.128;-68.83
1396.327;-69.03
1396.527;-69.56
1396.726;-69.95
1396.925;-70.22
1397.124;-70.27
1397.323;-70.45
1397.522;-70.6
1397.721;-70.91
1397.92;-71.07
1398.12;-71.37
1398.319;-71.94
1398.518;-72.08
1398.717;-72.42
1398.916;-72.66
1399.115;-72.81
1399.314;-73.4
1399.513;-73.66
1399.712;-74.26
1399.912;-74.11
1400.111;-75.15
1400.31;-74.18
1400.509;-74.69
1400.708;-74.89
1400.907;-74.97
1401.106;-74.85
1401.305;-74.39
1401.504;-74.56
1401.704;-74.39
1401.903;-74.16
1402.102;-74.05
1402.301;-73.88
1402.5;-73.36
1402.699;-73.16
1402.898;-73.14
1403.097;-73.34
1403.297;-72.83
1403.496;-72.78
1403.695;-72.71
1403.894;-72.29
1404.093;-72.41
1404.292;-72.34
1404.491;-71.93
1404.69;-72.0
1404.889;-72.27
1405.089;-72.24
1405.288;-72.17
1405.487;-71.73
1405.686;-71.38
1405.885;-71.16
1406.084;-70.94
1406.283;-70.89
1406.482;-70.87
1406.681;-70.87
1406.881;-70.6
1407.08;-70.88
1407.279;-70.77
1407.478;-70.85
1407.677;-70.69
1407.876;-70.73
1408.075;-70.22
1408.274;-70.31
1408.474;-70.21
1408.673;-70.32
1408.872;-70.38
1409.071;-70.38
1409.27;-70.64
1409.469;-70.9
1409.668;-70.84
1409.867;-70.74
1410.066;-70.47
1410.266;-70.59
1410.465;-70.41
1410.664;-70.44
1410.863;-70.42
1411.062;-70.48
1411.261;-70.61
1411.46;-70.6
1411.659;-70.62
1411.858;-70.78
1412.058;-70.83
1412.257;-71.09
1412.456;-71.29
1412.655;-71.09
1412.854;-71.46
1413.053;-71.17
1413.252;-71.41
1413.451;-71.26
1413.65;-71.55
1413.85;-71.75
1414.049;-72.06
1414.248;-71.99
1414.447;-72.4
1414.646;-72.56
1414.845;-72.68
1415.044;-72.47
1415.243;-72.68
1415.443;-72.85
1415.642;-73.27
1415.841;-73.3
1416.04;-73.26
1416.239;-73.13
1416.438;-73.62
1416.637;-74.09
1416.836;-74.12
1417.035;-74.22
1417.235;-74.46
1417.434;-74.73
1417.633;-75.02
1417.832;-75.07
1418.031;-75.64
1418.23;-75.51
1418.429;-75.98
1418.628;-75.87
1418.827;-76.29
1419.027;-76.48
1419.226;-77.19
1419.425;-77.44
1419.624;-76.91
1419.823;-77.25
1420.022;-77.52
1420.221;-77.55
1420.42;-77.65
1420.62;-77.65
1420.819;-77.9
1421.018;-78.99
1421.217;-78.81
1421.416;-79.17
1421.615;-80.36
1421.814;-79.54
1422.013;-79.82
1422.212;-79.75
1422.412;-79.85
1422.611;-79.93
1422.81;-80.79
1423.009;-80.92
1423.208;-81.98
1423.407;-82.55
1423.606;-82.28
1423.805;-80.97
1424.004;-81.16
1424.204;-83.98
1424.403;-81.86
1424.602;-81.98
1424.801;-83.13
1425.0;-81.8
