Wavelength (nm);Intensity (dBm)
1131.0;1131.0
1200.0;-56.78
1200.199;-56.68
1200.398;-56.64
1200.597;-56.65
1200.797;-56.64
1200.996;-56.58
1201.195;-56.52
1201.394;-56.51
1201.593;-56.48
1201.792;-56.41
1201.991;-56.37
1202.19;-56.29
1202.389;-56.24
1202.589;-56.19
1202.788;-56.13
1202.987;-56.04
1203.186;-55.97
1203.385;-55.95
1203.584;-55.88
1203.783;-55.77
1203.982;-55.74
1204.181;-55.71
1204.381;-55.64
1204.58;-55.56
1204.779;-55.51
1204.978;-55.5
1205.177;-55.44
1205.376;-55.37
1205.575;-55.35
1205.774;-55.34
1205.974;-55.33
1206.173;-55.25
1206.372;-55.22
1206.571;-55.24
1206.77;-55.2
1206.969;-55.16
1207.168;-55.12
1207.367;-55.09
1207.566;-55.08
1207.766;-55.04
1207.965;-55.0
1208.164;-54.94
1208.363;-54.91
1208.562;-54.9
1208.761;-54.81
1208.96;-54.75
1209.159;-54.73
1209.358;-54.67
1209.558;-54.59
1209.757;-54.53
1209.956;-54.51
1210.155;-54.45
1210.354;-54.37
1210.553;-54.35
1210.752;-54.3
1210.951;-54.25
1211.15;-54.2
1211.35;-54.15
1211.549;-54.13
1211.748;-54.1
1211.947;-54.07
1212.146;-54.02
1212.345;-53.99
1212.544;-54.01
1212.743;-53.96
1212.943;-53.91
1213.142;-53.89
1213.341;-53.89
1213.54;-53.86
1213.739;-53.8
1213.938;-53.79
1214.137;-53.77
1214.336;-53.7
1214.535;-53.68
1214.735;-53.64
1214.934;-53.6
1215.133;-53.55
1215.332;-53.48
1215.531;-53.44
1215.73;-53.39
1215.929;-53.34
1216.128;-53.26
1216.327;-53.19
1216.527;-53.17
1216.726;-53.11
1216.925;-53.02
1217.124;-52.96
1217.323;-52.92
1217.522;-52.88
1217.721;-52.79
1217.92;-52.76
1218.12;-52.71
1218.319;-52.65
1218.518;-52.62
1218.717;-52.57
1218.916;-52.53
1219.115;-52.49
1219.314;-52.45
1219.513;-52.42
1219.712;-52.38
1219.912;-52.36
1220.111;-52.31
1220.31;-52.26
1220.509;-52.25
1220.708;-52.21
1220.907;-52.16
1221.106;-52.1
1221.305;-52.06
1221.504;-52.01
1221.704;-51.95
1221.903;-51.91
1222.102;-51.84
1222.301;-51.78
1222.5;-51.72
1222.699;-51.64
1222.898;-51.59
1223.097;-51.52
1223.297;-51.44
1223.496;-51.37
1223.695;-51.31
1223.894;-51.25
1224.093;-51.16
1224.292;-51.1
1224.491;-51.05
1224.69;-50.98
1224.889;-50.93
1225.089;-50.87
1225.288;-50.81
1225.487;-50.77
1225.686;-50.72
1225.885;-50.69
1226.084;-50.64
1226.283;-50.6
1226.482;-50.58
1226.681;-50.54
1226.881;-50.52
1227.08;-50.48
1227.279;-50.45
1227.478;-50.42
1227.677;-50.39
1227.876;-50.37
1228.075;-50.32
1228.274;-50.29
1228.474;-50.26
1228.673;-50.22
1228.872;-50.18
1229.071;-50.13
1229.27;-50.09
1229.469;-50.04
1229.668;-49.98
1229.867;-49.93
1230.066;-49.88
1230.266;-49.81
1230.465;-49.77
1230.664;-49.7
1230.863;-49.67
1231.062;-49.61
1231.261;-49.56
1231.46;-49.54
1231.659;-49.48
1231.858;-49.44
1232.058;-49.4
1232.257;-49.36
1232.456;-49.33
1232.655;-49.28
1232.854;-49.24
1233.053;-49.2
1233.252;-49.15
1233.451;-49.11
1233.65;-49.06
1233.85;-49.01
1234.049;-48.95
1234.248;-48.88
1234.447;-48.82
1234.646;-48.75
1234.845;-48.69
1235.044;-48.59
1235.243;-48.51
1235.443;-48.42
1235.642;-48.33
1235.841;-48.24
1236.04;-48.14
1236.239;-48.04
1236.438;-47.92
1236.637;-47.83
1236.836;-47.74
1237.035;-47.63
1237.235;-47.53
1237.434;-47.42
1237.633;-47.33
1237.832;-47.24
1238.031;-47.14
1238.23;-47.06
1238.429;-46.95
1238.628;-46.86
1238.827;-46.77
1239.027;-46.68
1239.226;-46.58
1239.425;-46.47
1239.624;-46.38
1239.823;-46.28
1240.022;-46.18
1240.221;-46.08
1240.42;-45.93
1240.62;-45.86
1240.819;-45.74
1241.018;-45.62
1241.217;-45.5
1241.416;-45.38
1241.615;-45.26
1241.814;-45.13
1242.013;-45.02
1242.212;-44.9
1242.412;-44.78
1242.611;-44.68
1242.81;-44.56
1243.009;-44.45
1243.208;-44.35
1243.407;-44.25
1243.606;-44.15
1243.805;-44.05
1244.004;-43.97
1244.204;-43.89
1244.403;-43.81
1244.602;-43.74
1244.801;-43.66
1245.0;-43.59
1245.199;-43.53
1245.398;-43.47
1245.597;-43.41
1245.797;-43.35
1245.996;-43.29
1246.195;-43.24
1246.394;-43.18
1246.593;-43.13
1246.792;-43.08
1246.991;-43.02
1247.19;-42.97
1247.389;-42.92
1247.589;-42.88
1247.788;-42.83
1247.987;-42.78
1248.186;-42.74
1248.385;-42.7
1248.584;-42.67
1248.783;-42.64
1248.982;-42.62
1249.181;-42.61
1249.381;-42.59
1249.58;-42.59
1249.779;-42.59
1249.978;-42.59
1250.177;-42.61
1250.376;-42.63
1250.575;-42.66
1250.774;-42.69
1250.974;-42.75
1251.173;-42.8
1251.372;-42.85
1251.571;-42.93
1251.77;-42.98
1251.969;-43.05
1252.168;-43.11
1252.367;-43.18
1252.566;-43.28
1252.766;-43.35
1252.965;-43.44
1253.164;-43.51
1253.363;-43.59
1253.562;-43.69
1253.761;-43.76
1253.96;-43.87
1254.159;-43.95
1254.358;-44.04
1254.558;-44.15
1254.757;-44.23
1254.956;-44.33
1255.155;-44.42
1255.354;-44.51
1255.553;-44.61
1255.752;-44.69
1255.951;-44.78
1256.15;-44.84
1256.35;-44.9
1256.549;-44.95
1256.748;-44.98
1256.947;-45.01
1257.146;-45.0
1257.345;-44.98
1257.544;-44.94
1257.743;-44.87
1257.943;-44.79
1258.142;-44.68
1258.341;-44.54
1258.54;-44.38
1258.739;-44.19
1258.938;-44.0
1259.137;-43.77
1259.336;-43.54
1259.535;-43.29
1259.735;-43.02
1259.934;-42.75
1260.133;-42.47
1260.332;-42.19
1260.531;-41.89
1260.73;-41.6
1260.929;-41.3
1261.128;-41.0
1261.327;-40.71
1261.527;-40.42
1261.726;-40.12
1261.925;-39.83
1262.124;-39.55
1262.323;-39.28
1262.522;-39.0
1262.721;-38.73
1262.92;-38.46
1263.12;-38.19
1263.319;-37.94
1263.518;-37.68
1263.717;-37.43
1263.916;-37.17
1264.115;-36.92
1264.314;-36.69
1264.513;-36.45
1264.712;-36.22
1264.912;-35.94
1265.111;-35.76
1265.31;-35.54
1265.509;-35.33
1265.708;-35.13
1265.907;-34.92
1266.106;-34.72
1266.305;-34.53
1266.504;-34.35
1266.704;-34.18
1266.903;-33.99
1267.102;-33.83
1267.301;-33.67
1267.5;-33.51
1267.699;-33.38
1267.898;-33.22
1268.097;-33.09
1268.297;-32.96
1268.496;-32.83
1268.695;-32.72
1268.894;-32.58
1269.093;-32.47
1269.292;-32.35
1269.491;-32.25
1269.69;-32.15
1269.889;-32.04
1270.089;-31.95
1270.288;-31.86
1270.487;-31.77
1270.686;-31.69
1270.885;-31.6
1271.084;-31.53
1271.283;-31.45
1271.482;-31.38
1271.681;-31.33
1271.881;-31.26
1272.08;-31.22
1272.279;-31.17
1272.478;-31.12
1272.677;-31.1
1272.876;-31.06
1273.075;-31.05
1273.274;-31.02
1273.474;-31.01
1273.673;-31.01
1273.872;-31.01
1274.071;-31.02
1274.27;-31.02
1274.469;-31.04
1274.668;-31.06
1274.867;-31.08
1275.066;-31.12
1275.266;-31.14
1275.465;-31.18
1275.664;-31.23
1275.863;-31.28
1276.062;-31.34
1276.261;-31.39
1276.46;-31.47
1276.659;-31.53
1276.858;-31.61
1277.058;-31.7
1277.257;-31.79
1277.456;-31.9
1277.655;-32.01
1277.854;-32.12
1278.053;-32.26
1278.252;-32.39
1278.451;-32.55
1278.65;-32.7
1278.85;-32.87
1279.049;-33.05
1279.248;-33.23
1279.447;-33.44
1279.646;-33.64
1279.845;-33.87
1280.044;-34.11
1280.243;-34.35
1280.443;-34.62
1280.642;-34.89
1280.841;-35.17
1281.04;-35.46
1281.239;-35.77
1281.438;-36.1
1281.637;-36.42
1281.836;-36.75
1282.035;-37.08
1282.235;-37.41
1282.434;-37.75
1282.633;-38.07
1282.832;-38.44
1283.031;-38.65
1283.23;-38.88
1283.429;-39.05
1283.628;-39.16
1283.827;-39.2
1284.027;-39.15
1284.226;-39.02
1284.425;-38.79
1284.624;-38.49
1284.823;-38.13
1285.022;-37.72
1285.221;-37.28
1285.42;-36.79
1285.62;-36.3
1285.819;-35.71
1286.018;-35.3
1286.217;-34.81
1286.416;-34.31
1286.615;-33.85
1286.814;-33.36
1287.013;-32.91
1287.212;-32.46
1287.412;-32.02
1287.611;-31.61
1287.81;-31.19
1288.009;-30.8
1288.208;-30.42
1288.407;-30.05
1288.606;-29.7
1288.805;-29.36
1289.004;-29.03
1289.204;-28.71
1289.403;-28.4
1289.602;-28.11
1289.801;-27.82
1290.0;-27.55
1290.199;-27.28
1290.398;-27.02
1290.597;-26.79
1290.797;-26.54
1290.996;-26.3
1291.195;-26.02
1291.394;-25.85
1291.593;-25.62
1291.792;-25.42
1291.991;-25.22
1292.19;-25.02
1292.389;-24.85
1292.589;-24.66
1292.788;-24.48
1292.987;-24.32
1293.186;-24.16
1293.385;-24.02
1293.584;-23.86
1293.783;-23.73
1293.982;-23.59
1294.181;-23.46
1294.381;-23.35
1294.58;-23.21
1294.779;-23.12
1294.978;-23.0
1295.177;-22.91
1295.376;-22.81
1295.575;-22.71
1295.774;-22.64
1295.974;-22.54
1296.173;-22.46
1296.372;-22.4
1296.571;-22.32
1296.77;-22.27
1296.969;-22.21
1297.168;-22.17
1297.367;-22.12
1297.566;-22.07
1297.766;-22.04
1297.965;-22.01
1298.164;-21.99
1298.363;-21.97
1298.562;-21.94
1298.761;-21.94
1298.96;-21.93
1299.159;-21.95
1299.358;-21.95
1299.558;-21.95
1299.757;-21.97
1299.956;-22.0
1300.155;-22.04
1300.354;-22.07
1300.553;-22.1
1300.752;-22.14
1300.951;-22.19
1301.15;-22.27
1301.35;-22.32
1301.549;-22.41
1301.748;-22.48
1301.947;-22.56
1302.146;-22.66
1302.345;-22.75
1302.544;-22.87
1302.743;-22.97
1302.943;-23.09
1303.142;-23.23
1303.341;-23.35
1303.54;-23.51
1303.739;-23.65
1303.938;-23.8
1304.137;-23.97
1304.336;-24.14
1304.535;-24.35
1304.735;-24.53
1304.934;-24.74
1305.133;-24.95
1305.332;-25.17
1305.531;-25.42
1305.73;-25.66
1305.929;-25.92
1306.128;-26.18
1306.327;-26.45
1306.527;-26.75
1306.726;-27.04
1306.925;-27.36
1307.124;-27.68
1307.323;-28.0
1307.522;-28.41
1307.721;-28.7
1307.92;-29.05
1308.12;-29.42
1308.319;-29.79
1308.518;-30.15
1308.717;-30.52
1308.916;-30.87
1309.115;-31.21
1309.314;-31.53
1309.513;-31.8
1309.712;-32.03
1309.912;-32.2
1310.111;-32.31
1310.31;-32.37
1310.509;-32.35
1310.708;-32.26
1310.907;-32.1
1311.106;-31.89
1311.305;-31.64
1311.504;-31.34
1311.704;-31.03
1311.903;-30.67
1312.102;-30.32
1312.301;-29.96
1312.5;-29.6
1312.699;-29.24
1312.898;-28.88
1313.097;-28.53
1313.297;-28.18
1313.496;-27.86
1313.695;-27.55
1313.894;-27.23
1314.093;-26.95
1314.292;-26.66
1314.491;-26.39
1314.69;-26.09
1314.889;-25.89
1315.089;-25.66
1315.288;-25.43
1315.487;-25.24
1315.686;-25.02
1315.885;-24.84
1316.084;-24.65
1316.283;-24.48
1316.482;-24.34
1316.681;-24.18
1316.881;-24.05
1317.08;-23.92
1317.279;-23.8
1317.478;-23.69
1317.677;-23.58
1317.876;-23.49
1318.075;-23.4
1318.274;-23.32
1318.474;-23.25
1318.673;-23.18
1318.872;-23.14
1319.071;-23.08
1319.27;-23.05
1319.469;-23.0
1319.668;-22.97
1319.867;-22.96
1320.066;-22.94
1320.266;-22.94
1320.465;-22.92
1320.664;-22.93
1320.863;-22.95
1321.062;-22.95
1321.261;-22.99
1321.46;-23.01
1321.659;-23.05
1321.858;-23.08
1322.058;-23.13
1322.257;-23.19
1322.456;-23.24
1322.655;-23.31
1322.854;-23.37
1323.053;-23.45
1323.252;-23.54
1323.451;-23.62
1323.65;-23.72
1323.85;-23.82
1324.049;-23.92
1324.248;-24.03
1324.447;-24.14
1324.646;-24.28
1324.845;-24.39
1325.044;-24.53
1325.243;-24.66
1325.443;-24.8
1325.642;-24.97
1325.841;-25.11
1326.04;-25.28
1326.239;-25.44
1326.438;-25.61
1326.637;-25.78
1326.836;-25.96
1327.035;-26.16
1327.235;-26.34
1327.434;-26.53
1327.633;-26.73
1327.832;-26.93
1328.031;-27.16
1328.23;-27.36
1328.429;-27.59
1328.628;-27.8
1328.827;-28.03
1329.027;-28.26
1329.226;-28.54
1329.425;-28.74
1329.624;-28.97
1329.823;-29.22
1330.022;-29.46
1330.221;-29.71
1330.42;-29.96
1330.62;-30.22
1330.819;-30.49
1331.018;-30.74
1331.217;-31.02
1331.416;-31.27
1331.615;-31.53
1331.814;-31.8
1332.013;-32.05
1332.212;-32.31
1332.412;-32.56
1332.611;-32.82
1332.81;-33.06
1333.009;-33.29
1333.208;-33.53
1333.407;-33.74
1333.606;-33.96
1333.805;-34.16
1334.004;-34.36
1334.204;-34.55
1334.403;-34.71
1334.602;-34.88
1334.801;-35.02
1335.0;-35.15
1335.199;-35.27
1335.398;-35.38
1335.597;-35.48
1335.797;-35.57
1335.996;-35.66
1336.195;-35.72
1336.394;-35.77
1336.593;-35.83
1336.792;-35.85
1336.991;-35.9
1337.19;-35.92
1337.389;-35.95
1337.589;-35.96
1337.788;-35.97
1337.987;-36.0
1338.186;-36.0
1338.385;-36.01
1338.584;-36.01
1338.783;-36.02
1338.982;-36.04
1339.181;-36.04
1339.381;-36.07
1339.58;-36.07
1339.779;-36.09
1339.978;-36.11
1340.177;-36.13
1340.376;-36.17
1340.575;-36.2
1340.774;-36.24
1340.974;-36.26
1341.173;-36.29
1341.372;-36.34
1341.571;-36.38
1341.77;-36.44
1341.969;-36.48
1342.168;-36.54
1342.367;-36.61
1342.566;-36.66
1342.766;-36.75
1342.965;-36.8
1343.164;-36.89
1343.363;-36.96
1343.562;-37.05
1343.761;-37.14
1343.96;-37.23
1344.159;-37.34
1344.358;-37.44
1344.558;-37.54
1344.757;-37.66
1344.956;-37.76
1345.155;-37.88
1345.354;-37.98
1345.553;-38.1
1345.752;-38.22
1345.951;-38.34
1346.15;-38.51
1346.35;-38.62
1346.549;-38.79
1346.748;-38.92
1346.947;-39.06
1347.146;-39.2
1347.345;-39.33
1347.544;-39.54
1347.743;-39.74
1347.943;-39.94
1348.142;-40.09
1348.341;-40.27
1348.54;-40.41
1348.739;-40.57
1348.938;-40.74
1349.137;-40.89
1349.336;-41.05
1349.535;-41.23
1349.735;-41.39
1349.934;-41.59
1350.133;-41.8
1350.332;-42.08
1350.531;-42.3
1350.73;-42.5
1350.929;-42.7
1351.128;-42.84
1351.327;-43.05
1351.527;-43.26
1351.726;-43.54
1351.925;-43.78
1352.124;-44.0
1352.323;-44.25
1352.522;-44.5
1352.721;-44.73
1352.92;-44.95
1353.12;-45.28
1353.319;-45.46
1353.518;-45.7
1353.717;-45.98
1353.916;-46.15
1354.115;-46.39
1354.314;-46.71
1354.513;-46.98
1354.712;-47.39
1354.912;-47.77
1355.111;-48.06
1355.31;-48.29
1355.509;-48.4
1355.708;-48.87
1355.907;-49.15
1356.106;-49.42
1356.305;-49.62
1356.504;-49.86
1356.704;-49.87
1356.903;-50.14
1357.102;-50.6
1357.301;-50.94
1357.5;-51.24
1357.699;-51.53
1357.898;-51.7
1358.097;-51.83
1358.297;-52.11
1358.496;-52.42
1358.695;-52.63
1358.894;-52.86
1359.093;-53.08
1359.292;-53.17
1359.491;-53.57
1359.69;-53.89
1359.889;-54.11
1360.089;-54.17
1360.288;-54.2
1360.487;-54.15
1360.686;-54.27
1360.885;-54.56
1361.084;-54.79
1361.283;-54.87
1361.482;-54.93
1361.681;-55.07
1361.881;-55.07
1362.08;-55.16
1362.279;-55.47
1362.478;-55.55
1362.677;-55.53
1362.876;-55.22
1363.075;-55.02
1363.274;-54.62
1363.474;-54.53
1363.673;-54.45
1363.872;-54.42
1364.071;-54.48
1364.27;-54.5
1364.469;-54.65
1364.668;-54.99
1364.867;-55.03
1365.066;-54.82
1365.266;-54.83
1365.465;-54.62
1365.664;-54.52
1365.863;-54.41
1366.062;-54.24
1366.261;-54.1
1366.46;-54.02
1366.659;-54.04
1366.858;-54.16
1367.058;-54.15
1367.257;-54.13
1367.456;-54.27
1367.655;-54.34
1367.854;-54.51
1368.053;-54.5
1368.252;-54.37
1368.451;-54.61
1368.65;-54.61
1368.85;-54.6
1369.049;-54.49
1369.248;-54.37
1369.447;-54.2
1369.646;-54.24
1369.845;-54.49
1370.044;-54.61
1370.243;-54.68
1370.443;-54.65
1370.642;-54.61
1370.841;-54.87
1371.04;-55.1
1371.239;-55.22
1371.438;-55.18
1371.637;-55.11
1371.836;-55.04
1372.035;-55.21
1372.235;-55.38
1372.434;-55.45
1372.633;-55.51
1372.832;-55.52
1373.031;-55.55
1373.23;-55.66
1373.429;-55.82
1373.628;-55.91
1373.827;-56.0
1374.027;-56.12
1374.226;-56.22
1374.425;-56.39
1374.624;-56.53
1374.823;-56.75
1375.022;-56.95
1375.221;-57.06
1375.42;-57.17
1375.62;-57.29
1375.819;-57.44
1376.018;-57.65
1376.217;-57.85
1376.416;-58.01
1376.615;-58.17
1376.814;-58.4
1377.013;-58.79
1377.212;-59.0
1377.412;-59.16
1377.611;-59.36
1377.81;-59.4
1378.009;-59.58
1378.208;-59.79
1378.407;-60.08
1378.606;-60.47
1378.805;-60.88
1379.004;-61.19
1379.204;-61.39
1379.403;-61.55
1379.602;-61.68
1379.801;-61.88
1380.0;-62.22
1380.199;-62.56
1380.398;-62.97
1380.597;-63.7
1380.797;-64.37
1380.996;-64.72
1381.195;-65.01
1381.394;-65.0
1381.593;-64.89
1381.792;-65.29
1381.991;-65.58
1382.19;-65.92
1382.389;-66.5
1382.589;-67.29
1382.788;-67.91
1382.987;-68.51
1383.186;-68.57
1383.385;-68.57
1383.584;-68.51
1383.783;-68.82
1383.982;-69.03
1384.181;-69.34
1384.381;-69.62
1384.58;-69.55
1384.779;-69.82
1384.978;-70.05
1385.177;-70.24
1385.376;-70.3
1385.575;-70.1
1385.774;-69.96
1385.974;-69.87
1386.173;-69.8
1386.372;-69.65
1386.571;-69.48
1386.77;-69.28
1386.969;-69.03
1387.168;-68.64
1387.367;-68.45
1387.566;-68.3
1387.766;-68.36
1387.965;-68.33
1388.164;-68.23
1388.363;-68.14
1388.562;-67.71
1388.761;-67.21
1388.96;-67.05
1389.159;-66.71
1389.358;-66.53
1389.558;-66.31
1389.757;-66.2
1389.956;-66.11
1390.155;-65.92
1390.354;-65.76
1390.553;-65.57
1390.752;-65.41
1390.951;-65.29
1391.15;-65.18
1391.35;-65.02
1391.549;-64.92
1391.748;-64.79
1391.947;-64.7
1392.146;-64.78
1392.345;-64.83
1392.544;-65.14
1392.743;-65.09
1392.943;-64.86
1393.142;-64.6
1393.341;-64.25
1393.54;-64.15
1393.739;-64.06
1393.938;-64.01
1394.137;-63.97
1394.336;-63.92
1394.535;-63.92
1394.735;-63.93
1394.934;-64.14
1395.133;-64.28
1395.332;-64.34
1395.531;-64.34
1395.73;-64.27
1395.929;-64.12
1396.128;-64.11
1396.327;-64.21
1396.527;-64.38
1396.726;-64.46
1396.925;-64.44
1397.124;-64.24
1397.323;-64.14
1397.522;-64.02
1397.721;-64.05
1397.92;-64.06
1398.12;-64.09
1398.319;-64.14
1398.518;-64.21
1398.717;-64.3
1398.916;-64.34
1399.115;-64.42
1399.314;-64.52
1399.513;-64.81
1399.712;-64.96
1399.912;-65.09
1400.111;-65.3
1400.31;-65.23
1400.509;-65.38
1400.708;-65.77
1400.907;-65.83
1401.106;-65.89
1401.305;-65.99
1401.504;-65.91
1401.704;-66.0
1401.903;-66.1
1402.102;-66.14
1402.301;-66.21
1402.5;-66.29
1402.699;-66.48
1402.898;-66.57
1403.097;-66.78
1403.297;-66.94
1403.496;-67.09
1403.695;-67.29
1403.894;-67.44
1404.093;-67.63
1404.292;-67.77
1404.491;-68.03
1404.69;-68.25
1404.889;-68.76
1405.089;-69.04
1405.288;-69.31
1405.487;-69.51
1405.686;-69.16
1405.885;-69.32
1406.084;-69.35
1406.283;-69.56
1406.482;-69.75
1406.681;-70.05
1406.881;-70.36
1407.08;-70.62
1407.279;-70.8
1407.478;-71.17
1407.677;-71.24
1407.876;-71.17
1408.075;-71.13
1408.274;-71.67
1408.474;-71.69
1408.673;-71.77
1408.872;-71.82
1409.071;-72.16
1409.27;-72.63
1409.469;-72.96
1409.668;-73.06
1409.867;-72.92
1410.066;-73.08
1410.266;-72.91
1410.465;-73.01
1410.664;-73.15
1410.863;-73.12
1411.062;-73.17
1411.261;-73.24
1411.46;-73.06
1411.659;-73.5
1411.858;-73.33
1412.058;-73.68
1412.257;-73.41
1412.456;-73.68
1412.655;-73.62
1412.854;-73.5
1413.053;-73.31
1413.252;-73.23
1413.451;-73.44
1413.65;-73.38
1413.85;-73.73
1414.049;-73.68
1414.248;-74.02
1414.447;-73.67
1414.646;-73.48
1414.845;-73.51
1415.044;-73.51
1415.243;-73.29
1415.443;-73.37
1415.642;-73.72
1415.841;-73.28
1416.04;-73.28
1416.239;-73.05
1416.438;-73.28
1416.637;-73.3
1416.836;-73.48
1417.035;-73.2
1417.235;-73.32
1417.434;-73.16
1417.633;-73.36
1417.832;-73.26
1418.031;-73.2
1418.23;-73.42
1418.429;-73.67
1418.628;-73.58
1418.827;-73.82
1419.027;-73.75
1419.226;-73.73
1419.425;-73.85
1419.624;-73.85
1419.823;-73.9
1420.022;-74.13
1420.221;-73.97
1420.42;-74.09
1420.62;-73.98
1420.819;-74.05
1421.018;-74.06
1421.217;-74.31
1421.416;-74.5
1421.615;-74.52
1421.814;-74.68
1422.013;-74.81
1422.212;-74.46
1422.412;-74.55
1422.611;-74.77
1422.81;-75.24
1423.009;-75.14
1423.208;-75.12
1423.407;-75.63
1423.606;-75.56
1423.805;-75.72
1424.004;-76.03
1424.204;-76.2
1424.403;-76.43
1424.602;-76.75
1424.801;-76.18
1425.0;-76.23
