Wavelength (nm);Intensity (dBm)
1131.0;1131.0
1200.0;-58.61
1200.199;-58.53
1200.398;-58.48
1200.597;-58.53
1200.797;-58.51
1200.996;-58.45
1201.195;-58.4
1201.394;-58.38
1201.593;-58.39
1201.792;-58.31
1201.991;-58.26
1202.19;-58.21
1202.389;-58.15
1202.589;-58.14
1202.788;-58.07
1202.987;-57.98
1203.186;-57.95
1203.385;-57.92
1203.584;-57.86
1203.783;-57.76
1203.982;-57.73
1204.181;-57.72
1204.381;-57.64
1204.58;-57.58
1204.779;-57.53
1204.978;-57.53
1205.177;-57.5
1205.376;-57.43
1205.575;-57.42
1205.774;-57.4
1205.974;-57.4
1206.173;-57.37
1206.372;-57.33
1206.571;-57.35
1206.77;-57.34
1206.969;-57.29
1207.168;-57.28
1207.367;-57.26
1207.566;-57.26
1207.766;-57.25
1207.965;-57.21
1208.164;-57.18
1208.363;-57.16
1208.562;-57.15
1208.761;-57.07
1208.96;-57.03
1209.159;-57.03
1209.358;-56.97
1209.558;-56.9
1209.757;-56.86
1209.956;-56.83
1210.155;-56.79
1210.354;-56.7
1210.553;-56.67
1210.752;-56.64
1210.951;-56.59
1211.15;-56.55
1211.35;-56.49
1211.549;-56.47
1211.748;-56.45
1211.947;-56.4
1212.146;-56.36
1212.345;-56.33
1212.544;-56.33
1212.743;-56.27
1212.943;-56.22
1213.142;-56.22
1213.341;-56.2
1213.54;-56.15
1213.739;-56.11
1213.938;-56.09
1214.137;-56.08
1214.336;-55.99
1214.535;-55.95
1214.735;-55.92
1214.934;-55.85
1215.133;-55.81
1215.332;-55.73
1215.531;-55.69
1215.73;-55.62
1215.929;-55.56
1216.128;-55.47
1216.327;-55.39
1216.527;-55.36
1216.726;-55.27
1216.925;-55.18
1217.124;-55.11
1217.323;-55.03
1217.522;-54.97
1217.721;-54.88
1217.92;-54.82
1218.12;-54.75
1218.319;-54.67
1218.518;-54.63
1218.717;-54.55
1218.916;-54.5
1219.115;-54.43
1219.314;-54.36
1219.513;-54.33
1219.712;-54.27
1219.912;-54.23
1220.111;-54.15
1220.31;-54.09
1220.509;-54.06
1220.708;-53.99
1220.907;-53.92
1221.106;-53.86
1221.305;-53.81
1221.504;-53.74
1221.704;-53.66
1221.903;-53.6
1222.102;-53.52
1222.301;-53.44
1222.5;-53.37
1222.699;-53.27
1222.898;-53.2
1223.097;-53.11
1223.297;-53.02
1223.496;-52.94
1223.695;-52.85
1223.894;-52.77
1224.093;-52.68
1224.292;-52.6
1224.491;-52.53
1224.69;-52.45
1224.889;-52.37
1225.089;-52.3
1225.288;-52.23
1225.487;-52.17
1225.686;-52.1
1225.885;-52.05
1226.084;-52.0
1226.283;-51.95
1226.482;-51.9
1226.681;-51.86
1226.881;-51.82
1227.08;-51.78
1227.279;-51.73
1227.478;-51.7
1227.677;-51.65
1227.876;-51.62
1228.075;-51.57
1228.274;-51.53
1228.474;-51.49
1228.673;-51.43
1228.872;-51.38
1229.071;-51.33
1229.27;-51.27
1229.469;-51.21
1229.668;-51.14
1229.867;-51.07
1230.066;-51.01
1230.266;-50.93
1230.465;-50.86
1230.664;-50.78
1230.863;-50.72
1231.062;-50.66
1231.261;-50.59
1231.46;-50.55
1231.659;-50.47
1231.858;-50.4
1232.058;-50.36
1232.257;-50.28
1232.456;-50.24
1232.655;-50.17
1232.854;-50.1
1233.053;-50.05
1233.252;-49.98
1233.451;-49.92
1233.65;-49.85
1233.85;-49.78
1234.049;-49.71
1234.248;-49.62
1234.447;-49.54
1234.646;-49.45
1234.845;-49.36
1235.044;-49.26
1235.243;-49.16
1235.443;-49.06
1235.642;-48.94
1235.841;-48.83
1236.04;-48.73
1236.239;-48.6
1236.438;-48.49
1236.637;-48.38
1236.836;-48.26
1237.035;-48.15
1237.235;-48.03
1237.434;-47.93
1237.633;-47.82
1237.832;-47.72
1238.031;-47.61
1238.23;-47.51
1238.429;-47.42
1238.628;-47.32
1238.827;-47.22
1239.027;-47.12
1239.226;-47.02
1239.425;-46.93
1239.624;-46.82
1239.823;-46.73
1240.022;-46.62
1240.221;-46.51
1240.42;-46.41
1240.62;-46.3
1240.819;-46.19
1241.018;-46.06
1241.217;-45.94
1241.416;-45.84
1241.615;-45.71
1241.814;-45.6
1242.013;-45.48
1242.212;-45.39
1242.412;-45.27
1242.611;-45.17
1242.81;-45.07
1243.009;-44.97
1243.208;-44.9
1243.407;-44.81
1243.606;-44.72
1243.805;-44.66
1244.004;-44.58
1244.204;-44.53
1244.403;-44.47
1244.602;-44.41
1244.801;-44.36
1245.0;-44.31
1245.199;-44.28
1245.398;-44.24
1245.597;-44.19
1245.797;-44.16
1245.996;-44.11
1246.195;-44.08
1246.394;-44.04
1246.593;-44.0
1246.792;-43.96
1246.991;-43.91
1247.19;-43.89
1247.389;-43.85
1247.589;-43.81
1247.788;-43.78
1247.987;-43.73
1248.186;-43.72
1248.385;-43.68
1248.584;-43.65
1248.783;-43.64
1248.982;-43.62
1249.181;-43.62
1249.381;-43.61
1249.58;-43.6
1249.779;-43.6
1249.978;-43.6
1250.177;-43.62
1250.376;-43.62
1250.575;-43.62
1250.774;-43.64
1250.974;-43.65
1251.173;-43.67
1251.372;-43.67
1251.571;-43.68
1251.77;-43.68
1251.969;-43.66
1252.168;-43.65
1252.367;-43.61
1252.566;-43.58
1252.766;-43.52
1252.965;-43.46
1253.164;-43.39
1253.363;-43.29
1253.562;-43.2
1253.761;-43.08
1253.96;-42.95
1254.159;-42.82
1254.358;-42.66
1254.558;-42.51
1254.757;-42.33
1254.956;-42.14
1255.155;-41.96
1255.354;-41.75
1255.553;-41.56
1255.752;-41.34
1255.951;-41.12
1256.15;-40.91
1256.35;-40.67
1256.549;-40.46
1256.748;-40.21
1256.947;-39.97
1257.146;-39.73
1257.345;-39.48
1257.544;-39.26
1257.743;-39.0
1257.943;-38.75
1258.142;-38.5
1258.341;-38.24
1258.54;-38.01
1258.739;-37.74
1258.938;-37.5
1259.137;-37.25
1259.336;-36.99
1259.535;-36.76
1259.735;-36.5
1259.934;-36.26
1260.133;-36.02
1260.332;-35.75
1260.531;-35.56
1260.73;-35.33
1260.929;-35.12
1261.128;-34.89
1261.327;-34.68
1261.527;-34.48
1261.726;-34.27
1261.925;-34.08
1262.124;-33.88
1262.323;-33.7
1262.522;-33.51
1262.721;-33.32
1262.92;-33.15
1263.12;-32.97
1263.319;-32.8
1263.518;-32.63
1263.717;-32.47
1263.916;-32.31
1264.115;-32.14
1264.314;-31.99
1264.513;-31.83
1264.712;-31.68
1264.912;-31.54
1265.111;-31.39
1265.31;-31.26
1265.509;-31.13
1265.708;-31.0
1265.907;-30.88
1266.106;-30.76
1266.305;-30.66
1266.504;-30.56
1266.704;-30.46
1266.903;-30.38
1267.102;-30.29
1267.301;-30.22
1267.5;-30.15
1267.699;-30.08
1267.898;-30.02
1268.097;-29.96
1268.297;-29.91
1268.496;-29.86
1268.695;-29.82
1268.894;-29.78
1269.093;-29.73
1269.292;-29.71
1269.491;-29.68
1269.69;-29.65
1269.889;-29.63
1270.089;-29.6
1270.288;-29.6
1270.487;-29.6
1270.686;-29.6
1270.885;-29.6
1271.084;-29.6
1271.283;-29.63
1271.482;-29.65
1271.681;-29.69
1271.881;-29.72
1272.08;-29.77
1272.279;-29.84
1272.478;-29.89
1272.677;-29.97
1272.876;-30.04
1273.075;-30.13
1273.274;-30.23
1273.474;-30.32
1273.673;-30.44
1273.872;-30.54
1274.071;-30.66
1274.27;-30.78
1274.469;-30.9
1274.668;-31.05
1274.867;-31.18
1275.066;-31.33
1275.266;-31.48
1275.465;-31.64
1275.664;-31.82
1275.863;-31.97
1276.062;-32.15
1276.261;-32.33
1276.46;-32.51
1276.659;-32.7
1276.858;-32.89
1277.058;-33.09
1277.257;-33.27
1277.456;-33.45
1277.655;-33.64
1277.854;-33.8
1278.053;-33.96
1278.252;-34.09
1278.451;-34.21
1278.65;-34.3
1278.85;-34.35
1279.049;-34.39
1279.248;-34.36
1279.447;-34.31
1279.646;-34.22
1279.845;-34.09
1280.044;-33.93
1280.243;-33.73
1280.443;-33.49
1280.642;-33.22
1280.841;-32.93
1281.04;-32.63
1281.239;-32.3
1281.438;-31.97
1281.637;-31.61
1281.836;-31.26
1282.035;-30.91
1282.235;-30.54
1282.434;-30.19
1282.633;-29.84
1282.832;-29.48
1283.031;-29.14
1283.23;-28.79
1283.429;-28.46
1283.628;-28.12
1283.827;-27.79
1284.027;-27.48
1284.226;-27.16
1284.425;-26.87
1284.624;-26.57
1284.823;-26.28
1285.022;-25.95
1285.221;-25.73
1285.42;-25.47
1285.62;-25.2
1285.819;-24.96
1286.018;-24.71
1286.217;-24.48
1286.416;-24.24
1286.615;-24.02
1286.814;-23.81
1287.013;-23.59
1287.212;-23.39
1287.412;-23.18
1287.611;-22.99
1287.81;-22.81
1288.009;-22.62
1288.208;-22.46
1288.407;-22.28
1288.606;-22.12
1288.805;-21.98
1289.004;-21.82
1289.204;-21.69
1289.403;-21.55
1289.602;-21.42
1289.801;-21.3
1290.0;-21.17
1290.199;-21.07
1290.398;-20.96
1290.597;-20.86
1290.797;-20.77
1290.996;-20.66
1291.195;-20.58
1291.394;-20.49
1291.593;-20.4
1291.792;-20.32
1291.991;-20.25
1292.19;-20.2
1292.389;-20.14
1292.589;-20.09
1292.788;-20.04
1292.987;-20.0
1293.186;-19.97
1293.385;-19.93
1293.584;-19.91
1293.783;-19.89
1293.982;-19.88
1294.181;-19.87
1294.381;-19.87
1294.58;-19.87
1294.779;-19.87
1294.978;-19.9
1295.177;-19.91
1295.376;-19.93
1295.575;-19.97
1295.774;-20.0
1295.974;-20.04
1296.173;-20.08
1296.372;-20.14
1296.571;-20.2
1296.77;-20.26
1296.969;-20.35
1297.168;-20.42
1297.367;-20.51
1297.566;-20.59
1297.766;-20.69
1297.965;-20.81
1298.164;-20.92
1298.363;-21.05
1298.562;-21.17
1298.761;-21.31
1298.96;-21.48
1299.159;-21.63
1299.358;-21.81
1299.558;-21.97
1299.757;-22.16
1299.956;-22.37
1300.155;-22.57
1300.354;-22.81
1300.553;-23.03
1300.752;-23.28
1300.951;-23.55
1301.15;-23.83
1301.35;-24.13
1301.549;-24.44
1301.748;-24.77
1301.947;-25.11
1302.146;-25.48
1302.345;-25.87
1302.544;-26.28
1302.743;-26.72
1302.943;-27.16
1303.142;-27.64
1303.341;-28.26
1303.54;-28.72
1303.739;-29.3
1303.938;-29.9
1304.137;-30.56
1304.336;-31.21
1304.535;-31.91
1304.735;-32.6
1304.934;-33.27
1305.133;-33.89
1305.332;-34.38
1305.531;-34.73
1305.73;-34.84
1305.929;-34.73
1306.128;-34.43
1306.327;-33.91
1306.527;-33.31
1306.726;-32.61
1306.925;-31.9
1307.124;-31.2
1307.323;-30.5
1307.522;-29.85
1307.721;-29.19
1307.92;-28.59
1308.12;-28.02
1308.319;-27.46
1308.518;-26.97
1308.717;-26.46
1308.916;-25.92
1309.115;-25.56
1309.314;-25.15
1309.513;-24.77
1309.712;-24.39
1309.912;-24.04
1310.111;-23.7
1310.31;-23.39
1310.509;-23.1
1310.708;-22.79
1310.907;-22.53
1311.106;-22.26
1311.305;-22.02
1311.504;-21.79
1311.704;-21.56
1311.903;-21.35
1312.102;-21.14
1312.301;-20.96
1312.5;-20.78
1312.699;-20.61
1312.898;-20.45
1313.097;-20.29
1313.297;-20.16
1313.496;-20.02
1313.695;-19.9
1313.894;-19.78
1314.093;-19.68
1314.292;-19.59
1314.491;-19.49
1314.69;-19.41
1314.889;-19.32
1315.089;-19.24
1315.288;-19.19
1315.487;-19.13
1315.686;-19.09
1315.885;-19.03
1316.084;-18.99
1316.283;-18.96
1316.482;-18.94
1316.681;-18.94
1316.881;-18.91
1317.08;-18.92
1317.279;-18.92
1317.478;-18.93
1317.677;-18.95
1317.876;-18.95
1318.075;-18.99
1318.274;-19.01
1318.474;-19.04
1318.673;-19.1
1318.872;-19.13
1319.071;-19.2
1319.27;-19.25
1319.469;-19.31
1319.668;-19.39
1319.867;-19.45
1320.066;-19.55
1320.266;-19.62
1320.465;-19.71
1320.664;-19.81
1320.863;-19.9
1321.062;-20.01
1321.261;-20.11
1321.46;-20.24
1321.659;-20.34
1321.858;-20.46
1322.058;-20.6
1322.257;-20.72
1322.456;-20.87
1322.655;-21.0
1322.854;-21.15
1323.053;-21.3
1323.252;-21.45
1323.451;-21.62
1323.65;-21.77
1323.85;-21.95
1324.049;-22.11
1324.248;-22.29
1324.447;-22.47
1324.646;-22.64
1324.845;-22.84
1325.044;-23.01
1325.243;-23.21
1325.443;-23.4
1325.642;-23.6
1325.841;-23.81
1326.04;-24.0
1326.239;-24.2
1326.438;-24.4
1326.637;-24.6
1326.836;-24.81
1327.035;-25.01
1327.235;-25.23
1327.434;-25.42
1327.633;-25.62
1327.832;-25.82
1328.031;-26.02
1328.23;-26.23
1328.429;-26.41
1328.628;-26.61
1328.827;-26.8
1329.027;-26.98
1329.226;-27.17
1329.425;-27.33
1329.624;-27.51
1329.823;-27.67
1330.022;-27.82
1330.221;-27.98
1330.42;-28.12
1330.62;-28.27
1330.819;-28.4
1331.018;-28.57
1331.217;-28.66
1331.416;-28.78
1331.615;-28.89
1331.814;-29.0
1332.013;-29.11
1332.212;-29.19
1332.412;-29.29
1332.611;-29.38
1332.81;-29.46
1333.009;-29.54
1333.208;-29.6
1333.407;-29.68
1333.606;-29.74
1333.805;-29.81
1334.004;-29.87
1334.204;-29.92
1334.403;-29.99
1334.602;-30.04
1334.801;-30.11
1335.0;-30.16
1335.199;-30.22
1335.398;-30.28
1335.597;-30.33
1335.797;-30.42
1335.996;-30.47
1336.195;-30.54
1336.394;-30.6
1336.593;-30.67
1336.792;-30.74
1336.991;-30.8
1337.19;-30.89
1337.389;-30.97
1337.589;-31.05
1337.788;-31.14
1337.987;-31.22
1338.186;-31.32
1338.385;-31.4
1338.584;-31.5
1338.783;-31.6
1338.982;-31.7
1339.181;-31.83
1339.381;-31.93
1339.58;-32.05
1339.779;-32.16
1339.978;-32.29
1340.177;-32.43
1340.376;-32.55
1340.575;-32.71
1340.774;-32.84
1340.974;-32.98
1341.173;-33.12
1341.372;-33.27
1341.571;-33.44
1341.77;-33.58
1341.969;-33.75
1342.168;-33.91
1342.367;-34.07
1342.566;-34.26
1342.766;-34.43
1342.965;-34.63
1343.164;-34.8
1343.363;-34.99
1343.562;-35.19
1343.761;-35.38
1343.96;-35.6
1344.159;-35.8
1344.358;-36.02
1344.558;-36.23
1344.757;-36.45
1344.956;-36.67
1345.155;-36.88
1345.354;-37.11
1345.553;-37.34
1345.752;-37.57
1345.951;-37.81
1346.15;-38.05
1346.35;-38.32
1346.549;-38.63
1346.748;-38.85
1346.947;-39.09
1347.146;-39.36
1347.345;-39.61
1347.544;-39.92
1347.743;-40.26
1347.943;-40.56
1348.142;-40.86
1348.341;-41.15
1348.54;-41.42
1348.739;-41.71
1348.938;-42.0
1349.137;-42.31
1349.336;-42.58
1349.535;-42.89
1349.735;-43.2
1349.934;-43.53
1350.133;-43.89
1350.332;-44.29
1350.531;-44.68
1350.73;-45.03
1350.929;-45.37
1351.128;-45.7
1351.327;-46.03
1351.527;-46.43
1351.726;-46.85
1351.925;-47.27
1352.124;-47.67
1352.323;-48.07
1352.522;-48.57
1352.721;-48.9
1352.92;-49.31
1353.12;-49.81
1353.319;-50.16
1353.518;-50.57
1353.717;-51.01
1353.916;-51.36
1354.115;-51.73
1354.314;-52.19
1354.513;-52.58
1354.712;-53.1
1354.912;-53.57
1355.111;-53.91
1355.31;-54.2
1355.509;-54.3
1355.708;-54.64
1355.907;-54.95
1356.106;-55.11
1356.305;-55.17
1356.504;-55.22
1356.704;-55.05
1356.903;-55.05
1357.102;-55.27
1357.301;-55.3
1357.5;-55.25
1357.699;-55.2
1357.898;-55.0
1358.097;-54.8
1358.297;-54.7
1358.496;-54.65
1358.695;-54.5
1358.894;-54.35
1359.093;-54.21
1359.292;-53.96
1359.491;-54.08
1359.69;-54.09
1359.889;-53.98
1360.089;-53.76
1360.288;-53.51
1360.487;-53.26
1360.686;-53.16
1360.885;-53.27
1361.084;-53.32
1361.283;-53.23
1361.482;-53.16
1361.681;-53.18
1361.881;-53.1
1362.08;-53.1
1362.279;-53.35
1362.478;-53.39
1362.677;-53.32
1362.876;-53.02
1363.075;-52.78
1363.274;-52.4
1363.474;-52.33
1363.673;-52.26
1363.872;-52.28
1364.071;-52.35
1364.27;-52.43
1364.469;-52.62
1364.668;-53.02
1364.867;-53.13
1365.066;-52.97
1365.266;-53.07
1365.465;-52.92
1365.664;-52.91
1365.863;-52.87
1366.062;-52.79
1366.261;-52.71
1366.46;-52.72
1366.659;-52.84
1366.858;-53.02
1367.058;-53.12
1367.257;-53.18
1367.456;-53.41
1367.655;-53.57
1367.854;-53.82
1368.053;-53.92
1368.252;-53.87
1368.451;-54.22
1368.65;-54.28
1368.85;-54.39
1369.049;-54.38
1369.248;-54.34
1369.447;-54.29
1369.646;-54.4
1369.845;-54.77
1370.044;-54.98
1370.243;-55.14
1370.443;-55.25
1370.642;-55.29
1370.841;-55.65
1371.04;-55.97
1371.239;-56.21
1371.438;-56.3
1371.637;-56.32
1371.836;-56.38
1372.035;-56.63
1372.235;-56.93
1372.434;-57.11
1372.633;-57.3
1372.832;-57.42
1373.031;-57.55
1373.23;-57.8
1373.429;-58.06
1373.628;-58.31
1373.827;-58.57
1374.027;-58.79
1374.226;-59.01
1374.425;-59.3
1374.624;-59.59
1374.823;-59.93
1375.022;-60.3
1375.221;-60.56
1375.42;-60.84
1375.62;-61.09
1375.819;-61.39
1376.018;-61.73
1376.217;-62.11
1376.416;-62.47
1376.615;-62.76
1376.814;-63.18
1377.013;-63.64
1377.212;-64.07
1377.412;-64.48
1377.611;-64.8
1377.81;-64.99
1378.009;-65.32
1378.208;-65.7
1378.407;-66.12
1378.606;-66.58
1378.805;-67.14
1379.004;-67.44
1379.204;-67.71
1379.403;-67.92
1379.602;-68.01
1379.801;-68.11
1380.0;-68.44
1380.199;-68.52
1380.398;-68.78
1380.597;-69.24
1380.797;-69.66
1380.996;-69.53
1381.195;-69.36
1381.394;-68.85
1381.593;-68.31
1381.792;-68.01
1381.991;-67.74
1382.19;-67.63
1382.389;-67.64
1382.589;-67.88
1382.788;-68.03
1382.987;-67.95
1383.186;-67.32
1383.385;-66.73
1383.584;-66.21
1383.783;-66.07
1383.982;-65.85
1384.181;-65.61
1384.381;-65.39
1384.58;-65.07
1384.779;-64.88
1384.978;-64.98
1385.177;-64.9
1385.376;-64.76
1385.575;-64.46
1385.774;-64.28
1385.974;-64.05
1386.173;-63.88
1386.372;-63.8
1386.571;-63.66
1386.77;-63.47
1386.969;-63.36
1387.168;-63.2
1387.367;-63.08
1387.566;-62.99
1387.766;-63.15
1387.965;-63.25
1388.164;-63.37
1388.363;-63.36
1388.562;-63.19
1388.761;-62.9
1388.96;-62.76
1389.159;-62.6
1389.358;-62.53
1389.558;-62.51
1389.757;-62.49
1389.956;-62.54
1390.155;-62.53
1390.354;-62.5
1390.553;-62.47
1390.752;-62.39
1390.951;-62.42
1391.15;-62.42
1391.35;-62.42
1391.549;-62.39
1391.748;-62.46
1391.947;-62.48
1392.146;-62.61
1392.345;-62.83
1392.544;-63.19
1392.743;-63.3
1392.943;-63.22
1393.142;-63.06
1393.341;-62.83
1393.54;-62.79
1393.739;-62.85
1393.938;-62.92
1394.137;-63.0
1394.336;-63.04
1394.535;-63.14
1394.735;-63.27
1394.934;-63.54
1395.133;-63.8
1395.332;-63.89
1395.531;-64.07
1395.73;-64.13
1395.929;-64.08
1396.128;-64.15
1396.327;-64.32
1396.527;-64.63
1396.726;-64.86
1396.925;-64.87
1397.124;-64.76
1397.323;-64.73
1397.522;-64.83
1397.721;-64.94
1397.92;-65.08
1398.12;-65.18
1398.319;-65.32
1398.518;-65.48
1398.717;-65.69
1398.916;-65.84
1399.115;-65.98
1399.314;-66.17
1399.513;-66.57
1399.712;-66.84
1399.912;-67.18
1400.111;-67.35
1400.31;-67.42
1400.509;-67.54
1400.708;-68.14
1400.907;-68.4
1401.106;-68.51
1401.305;-68.71
1401.504;-68.59
1401.704;-68.9
1401.903;-68.91
1402.102;-69.24
1402.301;-69.38
1402.5;-69.6
1402.699;-69.79
1402.898;-70.0
1403.097;-70.15
1403.297;-70.48
1403.496;-70.5
1403.695;-70.77
1403.894;-70.95
1404.093;-71.36
1404.292;-71.47
1404.491;-71.72
1404.69;-71.73
1404.889;-72.41
1405.089;-72.7
1405.288;-72.89
1405.487;-72.93
1405.686;-72.68
1405.885;-72.56
1406.084;-72.84
1406.283;-72.86
1406.482;-72.92
1406.681;-73.17
1406.881;-73.05
1407.08;-73.36
1407.279;-73.6
1407.478;-73.5
1407.677;-73.6
1407.876;-73.41
1408.075;-73.12
1408.274;-73.11
1408.474;-73.38
1408.673;-72.99
1408.872;-73.22
1409.071;-73.25
1409.27;-73.07
1409.469;-73.09
1409.668;-73.14
1409.867;-72.99
1410.066;-72.69
1410.266;-72.82
1410.465;-72.44
1410.664;-72.43
1410.863;-72.55
1411.062;-72.48
1411.261;-72.35
1411.46;-72.3
1411.659;-72.5
1411.858;-72.16
1412.058;-71.94
1412.257;-72.03
1412.456;-72.05
1412.655;-72.05
1412.854;-71.78
1413.053;-71.97
1413.252;-71.8
1413.451;-71.77
1413.65;-72.11
1413.85;-72.02
1414.049;-72.14
1414.248;-71.9
1414.447;-72.29
1414.646;-71.99
1414.845;-72.45
1415.044;-72.1
1415.243;-72.14
1415.443;-72.06
1415.642;-72.38
1415.841;-72.45
1416.04;-72.11
1416.239;-72.03
1416.438;-72.17
1416.637;-72.18
1416.836;-72.29
1417.035;-72.54
1417.235;-72.54
1417.434;-72.68
1417.633;-72.76
1417.832;-72.89
1418.031;-72.79
1418.23;-73.12
1418.429;-73.23
1418.628;-73.29
1418.827;-73.36
1419.027;-73.78
1419.226;-73.63
1419.425;-74.0
1419.624;-74.19
1419.823;-73.86
1420.022;-74.09
1420.221;-74.0
1420.42;-74.24
1420.62;-74.21
1420.819;-74.39
1421.018;-74.47
1421.217;-74.58
1421.416;-75.28
1421.615;-75.13
1421.814;-75.27
1422.013;-75.96
1422.212;-75.35
1422.412;-75.72
1422.611;-75.67
1422.81;-75.38
1423.009;-75.93
1423.208;-76.66
1423.407;-76.44
1423.606;-77.26
1423.805;-76.81
1424.004;-76.74
1424.204;-77.49
1424.403;-77.58
1424.602;-77.11
1424.801;-76.97
1425.0;-77.11
