Wavelength (nm);Intensity (dBm)
1131.0;1131.0
1200.0;-56.52
1200.199;-56.44
1200.398;-56.44
1200.597;-56.48
1200.797;-56.48
1200.996;-56.41
1201.195;-56.38
1201.394;-56.41
1201.593;-56.39
1201.792;-56.34
1201.991;-56.31
1202.19;-56.26
1202.389;-56.22
1202.589;-56.19
1202.788;-56.15
1202.987;-56.07
1203.186;-56.01
1203.385;-56.02
1203.584;-55.96
1203.783;-55.86
1203.982;-55.83
1204.181;-55.83
1204.381;-55.78
1204.58;-55.7
1204.779;-55.68
1204.978;-55.67
1205.177;-55.62
1205.376;-55.57
1205.575;-55.55
1205.774;-55.56
1205.974;-55.55
1206.173;-55.49
1206.372;-55.49
1206.571;-55.49
1206.77;-55.47
1206.969;-55.44
1207.168;-55.41
1207.367;-55.41
1207.566;-55.39
1207.766;-55.36
1207.965;-55.33
1208.164;-55.28
1208.363;-55.28
1208.562;-55.24
1208.761;-55.15
1208.96;-55.11
1209.159;-55.09
1209.358;-55.04
1209.558;-54.94
1209.757;-54.88
1209.956;-54.87
1210.155;-54.79
1210.354;-54.71
1210.553;-54.68
1210.752;-54.64
1210.951;-54.57
1211.15;-54.51
1211.35;-54.47
1211.549;-54.42
1211.748;-54.38
1211.947;-54.35
1212.146;-54.28
1212.345;-54.25
1212.544;-54.24
1212.743;-54.18
1212.943;-54.12
1213.142;-54.1
1213.341;-54.09
1213.54;-54.02
1213.739;-53.96
1213.938;-53.95
1214.137;-53.9
1214.336;-53.84
1214.535;-53.79
1214.735;-53.74
1214.934;-53.69
1215.133;-53.61
1215.332;-53.56
1215.531;-53.49
1215.73;-53.42
1215.929;-53.37
1216.128;-53.28
1216.327;-53.21
1216.527;-53.17
1216.726;-53.1
1216.925;-53.01
1217.124;-52.95
1217.323;-52.91
1217.522;-52.83
1217.721;-52.76
1217.92;-52.71
1218.12;-52.66
1218.319;-52.61
1218.518;-52.56
1218.717;-52.5
1218.916;-52.46
1219.115;-52.41
1219.314;-52.38
1219.513;-52.34
1219.712;-52.3
1219.912;-52.28
1220.111;-52.22
1220.31;-52.19
1220.509;-52.16
1220.708;-52.13
1220.907;-52.08
1221.106;-52.03
1221.305;-52.01
1221.504;-51.94
1221.704;-51.89
1221.903;-51.85
1222.102;-51.79
1222.301;-51.75
1222.5;-51.67
1222.699;-51.6
1222.898;-51.56
1223.097;-51.48
1223.297;-51.41
1223.496;-51.33
1223.695;-51.27
1223.894;-51.21
1224.093;-51.12
1224.292;-51.06
1224.491;-50.98
1224.69;-50.91
1224.889;-50.84
1225.089;-50.77
1225.288;-50.71
1225.487;-50.63
1225.686;-50.57
1225.885;-50.52
1226.084;-50.45
1226.283;-50.41
1226.482;-50.33
1226.681;-50.29
1226.881;-50.25
1227.08;-50.18
1227.279;-50.14
1227.478;-50.07
1227.677;-50.02
1227.876;-49.98
1228.075;-49.9
1228.274;-49.85
1228.474;-49.77
1228.673;-49.69
1228.872;-49.62
1229.071;-49.53
1229.27;-49.46
1229.469;-49.35
1229.668;-49.25
1229.867;-49.16
1230.066;-49.05
1230.266;-48.94
1230.465;-48.82
1230.664;-48.72
1230.863;-48.63
1231.062;-48.52
1231.261;-48.43
1231.46;-48.34
1231.659;-48.25
1231.858;-48.16
1232.058;-48.07
1232.257;-48.0
1232.456;-47.92
1232.655;-47.83
1232.854;-47.76
1233.053;-47.69
1233.252;-47.62
1233.451;-47.53
1233.65;-47.47
1233.85;-47.39
1234.049;-47.31
1234.248;-47.23
1234.447;-47.14
1234.646;-47.06
1234.845;-46.97
1235.044;-46.87
1235.243;-46.8
1235.443;-46.69
1235.642;-46.61
1235.841;-46.51
1236.04;-46.42
1236.239;-46.34
1236.438;-46.23
1236.637;-46.16
1236.836;-46.08
1237.035;-46.01
1237.235;-45.94
1237.434;-45.86
1237.633;-45.84
1237.832;-45.78
1238.031;-45.73
1238.23;-45.71
1238.429;-45.66
1238.628;-45.65
1238.827;-45.6
1239.027;-45.58
1239.226;-45.55
1239.425;-45.51
1239.624;-45.51
1239.823;-45.47
1240.022;-45.45
1240.221;-45.41
1240.42;-45.37
1240.62;-45.36
1240.819;-45.31
1241.018;-45.27
1241.217;-45.23
1241.416;-45.19
1241.615;-45.15
1241.814;-45.11
1242.013;-45.09
1242.212;-45.07
1242.412;-45.05
1242.611;-45.04
1242.81;-45.03
1243.009;-45.02
1243.208;-45.03
1243.407;-45.05
1243.606;-45.07
1243.805;-45.09
1244.004;-45.12
1244.204;-45.17
1244.403;-45.2
1244.602;-45.26
1244.801;-45.3
1245.0;-45.36
1245.199;-45.41
1245.398;-45.47
1245.597;-45.52
1245.797;-45.56
1245.996;-45.61
1246.195;-45.66
1246.394;-45.71
1246.593;-45.76
1246.792;-45.79
1246.991;-45.84
1247.19;-45.87
1247.389;-45.91
1247.589;-45.95
1247.788;-45.98
1247.987;-46.01
1248.186;-46.05
1248.385;-46.08
1248.584;-46.1
1248.783;-46.12
1248.982;-46.15
1249.181;-46.17
1249.381;-46.18
1249.58;-46.19
1249.779;-46.18
1249.978;-46.17
1250.177;-46.15
1250.376;-46.13
1250.575;-46.1
1250.774;-46.05
1250.974;-46.0
1251.173;-45.94
1251.372;-45.85
1251.571;-45.78
1251.77;-45.67
1251.969;-45.54
1252.168;-45.4
1252.367;-45.25
1252.566;-45.11
1252.766;-44.91
1252.965;-44.74
1253.164;-44.53
1253.363;-44.31
1253.562;-44.1
1253.761;-43.86
1253.96;-43.64
1254.159;-43.38
1254.358;-43.13
1254.558;-42.89
1254.757;-42.63
1254.956;-42.39
1255.155;-42.14
1255.354;-41.9
1255.553;-41.67
1255.752;-41.43
1255.951;-41.2
1256.15;-40.98
1256.35;-40.75
1256.549;-40.54
1256.748;-40.33
1256.947;-40.13
1257.146;-39.91
1257.345;-39.71
1257.544;-39.52
1257.743;-39.31
1257.943;-39.12
1258.142;-38.92
1258.341;-38.73
1258.54;-38.54
1258.739;-38.34
1258.938;-38.15
1259.137;-37.96
1259.336;-37.79
1259.535;-37.6
1259.735;-37.42
1259.934;-37.25
1260.133;-37.09
1260.332;-36.93
1260.531;-36.77
1260.73;-36.62
1260.929;-36.47
1261.128;-36.33
1261.327;-36.2
1261.527;-36.08
1261.726;-35.94
1261.925;-35.83
1262.124;-35.72
1262.323;-35.61
1262.522;-35.51
1262.721;-35.42
1262.92;-35.31
1263.12;-35.21
1263.319;-35.12
1263.518;-35.03
1263.717;-34.95
1263.916;-34.85
1264.115;-34.77
1264.314;-34.69
1264.513;-34.62
1264.712;-34.56
1264.912;-34.48
1265.111;-34.41
1265.31;-34.35
1265.509;-34.3
1265.708;-34.27
1265.907;-34.22
1266.106;-34.2
1266.305;-34.17
1266.504;-34.15
1266.704;-34.16
1266.903;-34.14
1267.102;-34.15
1267.301;-34.15
1267.5;-34.18
1267.699;-34.21
1267.898;-34.23
1268.097;-34.27
1268.297;-34.3
1268.496;-34.34
1268.695;-34.4
1268.894;-34.43
1269.093;-34.49
1269.292;-34.54
1269.491;-34.61
1269.69;-34.68
1269.889;-34.75
1270.089;-34.84
1270.288;-34.92
1270.487;-35.02
1270.686;-35.13
1270.885;-35.25
1271.084;-35.39
1271.283;-35.52
1271.482;-35.68
1271.681;-35.85
1271.881;-36.02
1272.08;-36.23
1272.279;-36.42
1272.478;-36.64
1272.677;-36.88
1272.876;-37.11
1273.075;-37.38
1273.274;-37.63
1273.474;-37.92
1273.673;-38.26
1273.872;-38.52
1274.071;-38.82
1274.27;-39.15
1274.469;-39.5
1274.668;-39.84
1274.867;-40.21
1275.066;-40.57
1275.266;-40.95
1275.465;-41.34
1275.664;-41.71
1275.863;-42.08
1276.062;-42.42
1276.261;-42.73
1276.46;-42.99
1276.659;-43.15
1276.858;-43.25
1277.058;-43.23
1277.257;-43.12
1277.456;-42.92
1277.655;-42.61
1277.854;-42.25
1278.053;-41.81
1278.252;-41.33
1278.451;-40.82
1278.65;-40.3
1278.85;-39.78
1279.049;-39.24
1279.248;-38.73
1279.447;-38.21
1279.646;-37.7
1279.845;-37.21
1280.044;-36.72
1280.243;-36.25
1280.443;-35.71
1280.642;-35.35
1280.841;-34.92
1281.04;-34.51
1281.239;-34.11
1281.438;-33.71
1281.637;-33.35
1281.836;-32.97
1282.035;-32.62
1282.235;-32.29
1282.434;-31.95
1282.633;-31.66
1282.832;-31.34
1283.031;-31.04
1283.23;-30.76
1283.429;-30.48
1283.628;-30.22
1283.827;-29.94
1284.027;-29.69
1284.226;-29.45
1284.425;-29.2
1284.624;-28.98
1284.823;-28.74
1285.022;-28.53
1285.221;-28.31
1285.42;-28.1
1285.62;-27.91
1285.819;-27.71
1286.018;-27.53
1286.217;-27.34
1286.416;-27.16
1286.615;-27.01
1286.814;-26.84
1287.013;-26.69
1287.212;-26.53
1287.412;-26.38
1287.611;-26.25
1287.81;-26.09
1288.009;-26.0
1288.208;-25.87
1288.407;-25.76
1288.606;-25.64
1288.805;-25.54
1289.004;-25.45
1289.204;-25.35
1289.403;-25.27
1289.602;-25.18
1289.801;-25.1
1290.0;-25.03
1290.199;-24.96
1290.398;-24.91
1290.597;-24.85
1290.797;-24.8
1290.996;-24.74
1291.195;-24.69
1291.394;-24.67
1291.593;-24.61
1291.792;-24.58
1291.991;-24.56
1292.19;-24.54
1292.389;-24.54
1292.589;-24.51
1292.788;-24.51
1292.987;-24.52
1293.186;-24.52
1293.385;-24.55
1293.584;-24.56
1293.783;-24.59
1293.982;-24.62
1294.181;-24.66
1294.381;-24.71
1294.58;-24.75
1294.779;-24.81
1294.978;-24.86
1295.177;-24.93
1295.376;-25.01
1295.575;-25.08
1295.774;-25.17
1295.974;-25.25
1296.173;-25.36
1296.372;-25.46
1296.571;-25.56
1296.77;-25.7
1296.969;-25.82
1297.168;-25.96
1297.367;-26.1
1297.566;-26.24
1297.766;-26.41
1297.965;-26.57
1298.164;-26.76
1298.363;-26.94
1298.562;-27.12
1298.761;-27.34
1298.96;-27.54
1299.159;-27.78
1299.358;-28.01
1299.558;-28.3
1299.757;-28.51
1299.956;-28.77
1300.155;-29.05
1300.354;-29.32
1300.553;-29.6
1300.752;-29.88
1300.951;-30.16
1301.15;-30.47
1301.35;-30.75
1301.549;-31.04
1301.748;-31.3
1301.947;-31.56
1302.146;-31.8
1302.345;-32.0
1302.544;-32.2
1302.743;-32.32
1302.943;-32.41
1303.142;-32.46
1303.341;-32.44
1303.54;-32.39
1303.739;-32.25
1303.938;-32.08
1304.137;-31.86
1304.336;-31.6
1304.535;-31.33
1304.735;-31.0
1304.934;-30.66
1305.133;-30.31
1305.332;-29.95
1305.531;-29.6
1305.73;-29.22
1305.929;-28.87
1306.128;-28.51
1306.327;-28.15
1306.527;-27.83
1306.726;-27.48
1306.925;-27.17
1307.124;-26.85
1307.323;-26.53
1307.522;-26.25
1307.721;-25.91
1307.92;-25.69
1308.12;-25.42
1308.319;-25.18
1308.518;-24.92
1308.717;-24.68
1308.916;-24.45
1309.115;-24.22
1309.314;-24.02
1309.513;-23.81
1309.712;-23.61
1309.912;-23.42
1310.111;-23.24
1310.31;-23.07
1310.509;-22.9
1310.708;-22.74
1310.907;-22.58
1311.106;-22.44
1311.305;-22.3
1311.504;-22.17
1311.704;-22.06
1311.903;-21.92
1312.102;-21.81
1312.301;-21.71
1312.5;-21.62
1312.699;-21.54
1312.898;-21.44
1313.097;-21.36
1313.297;-21.29
1313.496;-21.22
1313.695;-21.17
1313.894;-21.1
1314.093;-21.07
1314.292;-21.02
1314.491;-20.99
1314.69;-20.96
1314.889;-20.92
1315.089;-20.91
1315.288;-20.89
1315.487;-20.89
1315.686;-20.88
1315.885;-20.88
1316.084;-20.9
1316.283;-20.9
1316.482;-20.94
1316.681;-20.95
1316.881;-20.98
1317.08;-21.04
1317.279;-21.07
1317.478;-21.14
1317.677;-21.18
1317.876;-21.24
1318.075;-21.3
1318.274;-21.37
1318.474;-21.45
1318.673;-21.53
1318.872;-21.62
1319.071;-21.72
1319.27;-21.81
1319.469;-21.92
1319.668;-22.03
1319.867;-22.15
1320.066;-22.26
1320.266;-22.38
1320.465;-22.52
1320.664;-22.65
1320.863;-22.81
1321.062;-22.94
1321.261;-23.1
1321.46;-23.25
1321.659;-23.41
1321.858;-23.59
1322.058;-23.76
1322.257;-23.95
1322.456;-24.13
1322.655;-24.31
1322.854;-24.52
1323.053;-24.72
1323.252;-24.94
1323.451;-25.14
1323.65;-25.37
1323.85;-25.59
1324.049;-25.82
1324.248;-26.07
1324.447;-26.3
1324.646;-26.56
1324.845;-26.8
1325.044;-27.06
1325.243;-27.32
1325.443;-27.59
1325.642;-27.88
1325.841;-28.14
1326.04;-28.42
1326.239;-28.76
1326.438;-28.99
1326.637;-29.26
1326.836;-29.54
1327.035;-29.83
1327.235;-30.11
1327.434;-30.4
1327.633;-30.67
1327.832;-30.94
1328.031;-31.22
1328.23;-31.47
1328.429;-31.73
1328.628;-31.97
1328.827;-32.2
1329.027;-32.42
1329.226;-32.61
1329.425;-32.81
1329.624;-32.97
1329.823;-33.13
1330.022;-33.26
1330.221;-33.38
1330.42;-33.48
1330.62;-33.56
1330.819;-33.63
1331.018;-33.68
1331.217;-33.72
1331.416;-33.75
1331.615;-33.76
1331.814;-33.77
1332.013;-33.75
1332.212;-33.73
1332.412;-33.71
1332.611;-33.68
1332.81;-33.65
1333.009;-33.61
1333.208;-33.58
1333.407;-33.53
1333.606;-33.49
1333.805;-33.46
1334.004;-33.41
1334.204;-33.39
1334.403;-33.34
1334.602;-33.31
1334.801;-33.28
1335.0;-33.25
1335.199;-33.24
1335.398;-33.22
1335.597;-33.21
1335.797;-33.21
1335.996;-33.21
1336.195;-33.22
1336.394;-33.22
1336.593;-33.24
1336.792;-33.24
1336.991;-33.27
1337.19;-33.3
1337.389;-33.33
1337.589;-33.37
1337.788;-33.41
1337.987;-33.47
1338.186;-33.52
1338.385;-33.57
1338.584;-33.63
1338.783;-33.69
1338.982;-33.78
1339.181;-33.85
1339.381;-33.94
1339.58;-34.02
1339.779;-34.11
1339.978;-34.22
1340.177;-34.31
1340.376;-34.44
1340.575;-34.55
1340.774;-34.67
1340.974;-34.78
1341.173;-34.9
1341.372;-35.04
1341.571;-35.16
1341.77;-35.31
1341.969;-35.44
1342.168;-35.58
1342.367;-35.74
1342.566;-35.88
1342.766;-36.06
1342.965;-36.21
1343.164;-36.38
1343.363;-36.55
1343.562;-36.72
1343.761;-36.91
1343.96;-37.09
1344.159;-37.29
1344.358;-37.48
1344.558;-37.68
1344.757;-37.89
1344.956;-38.07
1345.155;-38.29
1345.354;-38.52
1345.553;-38.71
1345.752;-38.91
1345.951;-39.14
1346.15;-39.37
1346.35;-39.6
1346.549;-39.86
1346.748;-40.09
1346.947;-40.34
1347.146;-40.58
1347.345;-40.81
1347.544;-41.11
1347.743;-41.42
1347.943;-41.72
1348.142;-41.98
1348.341;-42.27
1348.54;-42.52
1348.739;-42.79
1348.938;-43.07
1349.137;-43.35
1349.336;-43.62
1349.535;-43.91
1349.735;-44.2
1349.934;-44.53
1350.133;-44.87
1350.332;-45.27
1350.531;-45.63
1350.73;-45.98
1350.929;-46.32
1351.128;-46.61
1351.327;-46.98
1351.527;-47.35
1351.726;-47.79
1351.925;-48.2
1352.124;-48.7
1352.323;-49.03
1352.522;-49.48
1352.721;-49.91
1352.92;-50.34
1353.12;-50.89
1353.319;-51.29
1353.518;-51.78
1353.717;-52.3
1353.916;-52.72
1354.115;-53.23
1354.314;-53.82
1354.513;-54.38
1354.712;-55.07
1354.912;-55.76
1355.111;-56.37
1355.31;-56.95
1355.509;-57.41
1355.708;-58.04
1355.907;-58.86
1356.106;-59.31
1356.305;-59.8
1356.504;-60.27
1356.704;-60.43
1356.903;-60.77
1357.102;-61.25
1357.301;-61.52
1357.5;-61.62
1357.699;-61.59
1357.898;-61.4
1358.097;-61.14
1358.297;-60.95
1358.496;-60.75
1358.695;-60.44
1358.894;-60.1
1359.093;-59.74
1359.292;-59.34
1359.491;-59.28
1359.69;-59.13
1359.889;-58.81
1360.089;-58.4
1360.288;-58.01
1360.487;-57.61
1360.686;-57.4
1360.885;-57.38
1361.084;-57.32
1361.283;-57.1
1361.482;-56.89
1361.681;-56.83
1361.881;-56.64
1362.08;-56.57
1362.279;-56.72
1362.478;-56.69
1362.677;-56.53
1362.876;-56.03
1363.075;-55.83
1363.274;-55.39
1363.474;-55.27
1363.673;-55.15
1363.872;-55.11
1364.071;-55.13
1364.27;-55.15
1364.469;-55.29
1364.668;-55.65
1364.867;-55.71
1365.066;-55.52
1365.266;-55.57
1365.465;-55.38
1365.664;-55.33
1365.863;-55.25
1366.062;-55.13
1366.261;-55.03
1366.46;-55.01
1366.659;-55.1
1366.858;-55.24
1367.058;-55.31
1367.257;-55.34
1367.456;-55.54
1367.655;-55.69
1367.854;-55.91
1368.053;-55.98
1368.252;-55.91
1368.451;-56.22
1368.65;-56.28
1368.85;-56.34
1369.049;-56.32
1369.248;-56.26
1369.447;-56.17
1369.646;-56.27
1369.845;-56.6
1370.044;-56.81
1370.243;-56.94
1370.443;-57.03
1370.642;-57.05
1370.841;-57.39
1371.04;-57.69
1371.239;-57.9
1371.438;-57.97
1371.637;-57.97
1371.836;-58.01
1372.035;-58.25
1372.235;-58.59
1372.434;-58.7
1372.633;-58.86
1372.832;-58.95
1373.031;-59.06
1373.23;-59.29
1373.429;-59.53
1373.628;-59.75
1373.827;-59.94
1374.027;-60.16
1374.226;-60.36
1374.425;-60.62
1374.624;-60.89
1374.823;-61.19
1375.022;-61.52
1375.221;-61.75
1375.42;-61.99
1375.62;-62.2
1375.819;-62.45
1376.018;-62.79
1376.217;-63.08
1376.416;-63.4
1376.615;-63.69
1376.814;-64.0
1377.013;-64.42
1377.212;-64.76
1377.412;-65.11
1377.611;-65.33
1377.81;-65.48
1378.009;-65.76
1378.208;-65.96
1378.407;-66.33
1378.606;-66.72
1378.805;-67.18
1379.004;-67.46
1379.204;-67.72
1379.403;-67.76
1379.602;-67.81
1379.801;-67.92
1380.0;-68.09
1380.199;-68.17
1380.398;-68.31
1380.597;-68.89
1380.797;-69.24
1380.996;-69.19
1381.195;-69.13
1381.394;-68.68
1381.593;-68.26
1381.792;-68.03
1381.991;-67.98
1382.19;-67.86
1382.389;-67.83
1382.589;-68.16
1382.788;-68.44
1382.987;-68.29
1383.186;-67.73
1383.385;-67.18
1383.584;-66.78
1383.783;-66.63
1383.982;-66.47
1384.181;-66.29
1384.381;-66.02
1384.58;-65.76
1384.779;-65.6
1384.978;-65.74
1385.177;-65.7
1385.376;-65.61
1385.575;-65.31
1385.774;-65.11
1385.974;-64.91
1386.173;-64.77
1386.372;-64.68
1386.571;-64.52
1386.77;-64.38
1386.969;-64.27
1387.168;-64.12
1387.367;-64.02
1387.566;-63.89
1387.766;-64.06
1387.965;-64.19
1388.164;-64.32
1388.363;-64.31
1388.562;-64.1
1388.761;-63.83
1388.96;-63.65
1389.159;-63.53
1389.358;-63.44
1389.558;-63.41
1389.757;-63.38
1389.956;-63.48
1390.155;-63.45
1390.354;-63.39
1390.553;-63.38
1390.752;-63.25
1390.951;-63.3
1391.15;-63.3
1391.35;-63.29
1391.549;-63.3
1391.748;-63.3
1391.947;-63.34
1392.146;-63.49
1392.345;-63.64
1392.544;-64.02
1392.743;-64.12
1392.943;-63.99
1393.142;-63.84
1393.341;-63.58
1393.54;-63.52
1393.739;-63.55
1393.938;-63.62
1394.137;-63.67
1394.336;-63.76
1394.535;-63.8
1394.735;-63.91
1394.934;-64.14
1395.133;-64.41
1395.332;-64.49
1395.531;-64.64
1395.73;-64.69
1395.929;-64.55
1396.128;-64.59
1396.327;-64.74
1396.527;-65.09
1396.726;-65.24
1396.925;-65.25
1397.124;-65.14
1397.323;-65.08
1397.522;-65.06
1397.721;-65.17
1397.92;-65.24
1398.12;-65.36
1398.319;-65.46
1398.518;-65.55
1398.717;-65.68
1398.916;-65.8
1399.115;-65.92
1399.314;-66.09
1399.513;-66.36
1399.712;-66.64
1399.912;-66.8
1400.111;-66.97
1400.31;-67.06
1400.509;-67.21
1400.708;-67.63
1400.907;-67.75
1401.106;-67.89
1401.305;-67.96
1401.504;-67.93
1401.704;-68.04
1401.903;-68.11
1402.102;-68.14
1402.301;-68.22
1402.5;-68.27
1402.699;-68.45
1402.898;-68.57
1403.097;-68.73
1403.297;-68.77
1403.496;-68.97
1403.695;-68.99
1403.894;-69.23
1404.093;-69.37
1404.292;-69.56
1404.491;-69.74
1404.69;-69.88
1404.889;-70.25
1405.089;-70.43
1405.288;-70.54
1405.487;-70.62
1405.686;-70.28
1405.885;-70.31
1406.084;-70.15
1406.283;-70.3
1406.482;-70.31
1406.681;-70.44
1406.881;-70.46
1407.08;-70.58
1407.279;-70.81
1407.478;-71.0
1407.677;-70.95
1407.876;-70.84
1408.075;-70.75
1408.274;-70.73
1408.474;-70.7
1408.673;-70.65
1408.872;-70.9
1409.071;-70.83
1409.27;-70.96
1409.469;-71.12
1409.668;-71.24
1409.867;-71.14
1410.066;-70.98
1410.266;-70.91
1410.465;-70.71
1410.664;-70.62
1410.863;-70.69
1411.062;-70.69
1411.261;-70.69
1411.46;-70.65
1411.659;-70.75
1411.858;-70.74
1412.058;-70.77
1412.257;-70.81
1412.456;-70.91
1412.655;-70.95
1412.854;-70.98
1413.053;-70.78
1413.252;-70.79
1413.451;-70.83
1413.65;-70.91
1413.85;-71.11
1414.049;-71.13
1414.248;-71.23
1414.447;-71.31
1414.646;-71.4
1414.845;-71.23
1415.044;-71.17
1415.243;-71.28
1415.443;-71.26
1415.642;-71.23
1415.841;-71.49
1416.04;-71.46
1416.239;-71.4
1416.438;-71.7
1416.637;-71.8
1416.836;-71.94
1417.035;-71.73
1417.235;-72.0
1417.434;-72.04
1417.633;-72.45
1417.832;-72.17
1418.031;-72.28
1418.23;-72.43
1418.429;-72.61
1418.628;-72.54
1418.827;-72.82
1419.027;-72.88
1419.226;-73.15
1419.425;-73.03
1419.624;-73.29
1419.823;-73.28
1420.022;-73.41
1420.221;-74.06
1420.42;-73.66
1420.62;-73.9
1420.819;-74.11
1421.018;-74.15
1421.217;-74.58
1421.416;-74.34
1421.615;-74.95
1421.814;-74.95
1422.013;-75.22
1422.212;-74.95
1422.412;-75.29
1422.611;-75.02
1422.81;-76.41
1423.009;-76.02
1423.208;-76.46
1423.407;-76.77
1423.606;-76.84
1423.805;-77.33
1424.004;-77.64
1424.204;-77.37
1424.403;-78.6
1424.602;-77.49
1424.801;-77.24
1425.0;-77.41
