Wavelength (nm);Intensity (dBm)
1131.0;1131.0
1200.0;-61.17
1200.199;-61.08
1200.398;-61.08
1200.597;-61.06
1200.797;-61.03
1200.996;-60.99
1201.195;-60.97
1201.394;-60.94
1201.593;-60.91
1201.792;-60.82
1201.991;-60.82
1202.19;-60.78
1202.389;-60.69
1202.589;-60.65
1202.788;-60.67
1202.987;-60.64
1203.186;-60.58
1203.385;-60.51
1203.584;-60.56
1203.783;-60.53
1203.982;-60.5
1204.181;-60.48
1204.381;-60.49
1204.58;-60.5
1204.779;-60.47
1204.978;-60.49
1205.177;-60.47
1205.376;-60.46
1205.575;-60.49
1205.774;-60.48
1205.974;-60.45
1206.173;-60.43
1206.372;-60.47
1206.571;-60.46
1206.77;-60.43
1206.969;-60.4
1207.168;-60.42
1207.367;-60.38
1207.566;-60.34
1207.766;-60.3
1207.965;-60.3
1208.164;-60.28
1208.363;-60.19
1208.562;-60.17
1208.761;-60.13
1208.96;-60.09
1209.159;-60.07
1209.358;-59.96
1209.558;-59.94
1209.757;-59.91
1209.956;-59.8
1210.155;-59.72
1210.354;-59.66
1210.553;-59.64
1210.752;-59.56
1210.951;-59.45
1211.15;-59.38
1211.35;-59.33
1211.549;-59.29
1211.748;-59.19
1211.947;-59.1
1212.146;-59.07
1212.345;-59.03
1212.544;-58.98
1212.743;-58.88
1212.943;-58.86
1213.142;-58.85
1213.341;-58.79
1213.54;-58.75
1213.739;-58.7
1213.938;-58.69
1214.137;-58.63
1214.336;-58.56
1214.535;-58.55
1214.735;-58.52
1214.934;-58.46
1215.133;-58.39
1215.332;-58.34
1215.531;-58.32
1215.73;-58.26
1215.929;-58.2
1216.128;-58.13
1216.327;-58.08
1216.527;-58.06
1216.726;-57.97
1216.925;-57.91
1217.124;-57.87
1217.323;-57.83
1217.522;-57.78
1217.721;-57.71
1217.92;-57.7
1218.12;-57.7
1218.319;-57.63
1218.518;-57.61
1218.717;-57.6
1218.916;-57.6
1219.115;-57.56
1219.314;-57.52
1219.513;-57.55
1219.712;-57.55
1219.912;-57.52
1220.111;-57.51
1220.31;-57.5
1220.509;-57.54
1220.708;-57.51
1220.907;-57.49
1221.106;-57.47
1221.305;-57.47
1221.504;-57.46
1221.704;-57.41
1221.903;-57.4
1222.102;-57.4
1222.301;-57.36
1222.5;-57.32
1222.699;-57.29
1222.898;-57.29
1223.097;-57.25
1223.297;-57.2
1223.496;-57.17
1223.695;-57.13
1223.894;-57.1
1224.093;-57.04
1224.292;-56.98
1224.491;-56.98
1224.69;-56.93
1224.889;-56.86
1225.089;-56.82
1225.288;-56.78
1225.487;-56.74
1225.686;-56.67
1225.885;-56.63
1226.084;-56.58
1226.283;-56.52
1226.482;-56.44
1226.681;-56.37
1226.881;-56.32
1227.08;-56.23
1227.279;-56.13
1227.478;-56.05
1227.677;-55.96
1227.876;-55.86
1228.075;-55.69
1228.274;-55.61
1228.474;-55.5
1228.673;-55.38
1228.872;-55.26
1229.071;-55.11
1229.27;-55.0
1229.469;-54.87
1229.668;-54.72
1229.867;-54.6
1230.066;-54.49
1230.266;-54.35
1230.465;-54.22
1230.664;-54.11
1230.863;-54.03
1231.062;-53.9
1231.261;-53.79
1231.46;-53.72
1231.659;-53.63
1231.858;-53.53
1232.058;-53.44
1232.257;-53.36
1232.456;-53.28
1232.655;-53.18
1232.854;-53.11
1233.053;-53.02
1233.252;-52.95
1233.451;-52.85
1233.65;-52.77
1233.85;-52.71
1234.049;-52.63
1234.248;-52.54
1234.447;-52.46
1234.646;-52.39
1234.845;-52.33
1235.044;-52.24
1235.243;-52.17
1235.443;-52.1
1235.642;-52.03
1235.841;-51.96
1236.04;-51.89
1236.239;-51.83
1236.438;-51.75
1236.637;-51.68
1236.836;-51.63
1237.035;-51.57
1237.235;-51.5
1237.434;-51.43
1237.633;-51.38
1237.832;-51.35
1238.031;-51.27
1238.23;-51.23
1238.429;-51.18
1238.628;-51.14
1238.827;-51.09
1239.027;-51.05
1239.226;-51.01
1239.425;-50.96
1239.624;-50.91
1239.823;-50.88
1240.022;-50.85
1240.221;-50.8
1240.42;-50.75
1240.62;-50.71
1240.819;-50.67
1241.018;-50.59
1241.217;-50.55
1241.416;-50.49
1241.615;-50.41
1241.814;-50.35
1242.013;-50.28
1242.212;-50.23
1242.412;-50.14
1242.611;-50.06
1242.81;-50.0
1243.009;-49.91
1243.208;-49.85
1243.407;-49.77
1243.606;-49.69
1243.805;-49.64
1244.004;-49.56
1244.204;-49.51
1244.403;-49.44
1244.602;-49.37
1244.801;-49.32
1245.0;-49.26
1245.199;-49.22
1245.398;-49.16
1245.597;-49.09
1245.797;-49.04
1245.996;-48.97
1246.195;-48.92
1246.394;-48.84
1246.593;-48.76
1246.792;-48.7
1246.991;-48.6
1247.19;-48.53
1247.389;-48.43
1247.589;-48.32
1247.788;-48.23
1247.987;-48.11
1248.186;-48.01
1248.385;-47.88
1248.584;-47.74
1248.783;-47.61
1248.982;-47.46
1249.181;-47.32
1249.381;-47.15
1249.58;-46.97
1249.779;-46.79
1249.978;-46.6
1250.177;-46.42
1250.376;-46.2
1250.575;-45.98
1250.774;-45.73
1250.974;-45.56
1251.173;-45.33
1251.372;-45.09
1251.571;-44.87
1251.77;-44.62
1251.969;-44.37
1252.168;-44.12
1252.367;-43.87
1252.566;-43.63
1252.766;-43.37
1252.965;-43.13
1253.164;-42.87
1253.363;-42.61
1253.562;-42.38
1253.761;-42.12
1253.96;-41.89
1254.159;-41.65
1254.358;-41.4
1254.558;-41.19
1254.757;-40.96
1254.956;-40.75
1255.155;-40.54
1255.354;-40.33
1255.553;-40.16
1255.752;-39.97
1255.951;-39.81
1256.15;-39.65
1256.35;-39.5
1256.549;-39.38
1256.748;-39.24
1256.947;-39.13
1257.146;-39.02
1257.345;-38.92
1257.544;-38.85
1257.743;-38.77
1257.943;-38.72
1258.142;-38.66
1258.341;-38.61
1258.54;-38.59
1258.739;-38.55
1258.938;-38.55
1259.137;-38.54
1259.336;-38.55
1259.535;-38.58
1259.735;-38.61
1259.934;-38.66
1260.133;-38.72
1260.332;-38.8
1260.531;-38.9
1260.73;-39.01
1260.929;-39.15
1261.128;-39.28
1261.327;-39.45
1261.527;-39.63
1261.726;-39.83
1261.925;-40.05
1262.124;-40.26
1262.323;-40.49
1262.522;-40.73
1262.721;-40.96
1262.92;-41.18
1263.12;-41.37
1263.319;-41.55
1263.518;-41.67
1263.717;-41.74
1263.916;-41.75
1264.115;-41.66
1264.314;-41.51
1264.513;-41.28
1264.712;-40.96
1264.912;-40.59
1265.111;-40.14
1265.31;-39.66
1265.509;-39.15
1265.708;-38.62
1265.907;-38.08
1266.106;-37.54
1266.305;-37.01
1266.504;-36.48
1266.704;-35.89
1266.903;-35.46
1267.102;-34.99
1267.301;-34.53
1267.5;-34.08
1267.699;-33.67
1267.898;-33.25
1268.097;-32.87
1268.297;-32.49
1268.496;-32.14
1268.695;-31.8
1268.894;-31.46
1269.093;-31.15
1269.292;-30.84
1269.491;-30.55
1269.69;-30.29
1269.889;-30.01
1270.089;-29.76
1270.288;-29.52
1270.487;-29.3
1270.686;-29.09
1270.885;-28.87
1271.084;-28.69
1271.283;-28.5
1271.482;-28.33
1271.681;-28.18
1271.881;-28.03
1272.08;-27.91
1272.279;-27.79
1272.478;-27.68
1272.677;-27.59
1272.876;-27.5
1273.075;-27.44
1273.274;-27.37
1273.474;-27.32
1273.673;-27.29
1273.872;-27.26
1274.071;-27.25
1274.27;-27.23
1274.469;-27.23
1274.668;-27.25
1274.867;-27.26
1275.066;-27.29
1275.266;-27.31
1275.465;-27.36
1275.664;-27.4
1275.863;-27.45
1276.062;-27.53
1276.261;-27.58
1276.46;-27.66
1276.659;-27.72
1276.858;-27.8
1277.058;-27.89
1277.257;-27.96
1277.456;-28.05
1277.655;-28.13
1277.854;-28.21
1278.053;-28.3
1278.252;-28.37
1278.451;-28.45
1278.65;-28.51
1278.85;-28.55
1279.049;-28.6
1279.248;-28.62
1279.447;-28.65
1279.646;-28.64
1279.845;-28.62
1280.044;-28.59
1280.243;-28.53
1280.443;-28.47
1280.642;-28.37
1280.841;-28.27
1281.04;-28.15
1281.239;-28.01
1281.438;-27.87
1281.637;-27.7
1281.836;-27.54
1282.035;-27.37
1282.235;-27.19
1282.434;-27.02
1282.633;-26.83
1282.832;-26.65
1283.031;-26.46
1283.23;-26.27
1283.429;-26.07
1283.628;-25.92
1283.827;-25.76
1284.027;-25.58
1284.226;-25.42
1284.425;-25.26
1284.624;-25.1
1284.823;-24.97
1285.022;-24.82
1285.221;-24.68
1285.42;-24.54
1285.62;-24.41
1285.819;-24.29
1286.018;-24.15
1286.217;-24.04
1286.416;-23.92
1286.615;-23.81
1286.814;-23.7
1287.013;-23.58
1287.212;-23.48
1287.412;-23.36
1287.611;-23.25
1287.81;-23.14
1288.009;-23.03
1288.208;-22.92
1288.407;-22.79
1288.606;-22.68
1288.805;-22.56
1289.004;-22.43
1289.204;-22.31
1289.403;-22.17
1289.602;-22.03
1289.801;-21.9
1290.0;-21.74
1290.199;-21.61
1290.398;-21.44
1290.597;-21.29
1290.797;-21.12
1290.996;-20.94
1291.195;-20.77
1291.394;-20.59
1291.593;-20.4
1291.792;-20.21
1291.991;-20.02
1292.19;-19.85
1292.389;-19.66
1292.589;-19.47
1292.788;-19.28
1292.987;-19.1
1293.186;-18.93
1293.385;-18.75
1293.584;-18.59
1293.783;-18.41
1293.982;-18.26
1294.181;-18.1
1294.381;-17.95
1294.58;-17.81
1294.779;-17.67
1294.978;-17.54
1295.177;-17.41
1295.376;-17.29
1295.575;-17.18
1295.774;-17.06
1295.974;-16.97
1296.173;-16.86
1296.372;-16.78
1296.571;-16.69
1296.77;-16.61
1296.969;-16.56
1297.168;-16.49
1297.367;-16.45
1297.566;-16.39
1297.766;-16.35
1297.965;-16.34
1298.164;-16.3
1298.363;-16.3
1298.562;-16.28
1298.761;-16.28
1298.96;-16.3
1299.159;-16.31
1299.358;-16.35
1299.558;-16.36
1299.757;-16.4
1299.956;-16.46
1300.155;-16.51
1300.354;-16.58
1300.553;-16.63
1300.752;-16.7
1300.951;-16.78
1301.15;-16.87
1301.35;-16.97
1301.549;-17.06
1301.748;-17.17
1301.947;-17.27
1302.146;-17.38
1302.345;-17.49
1302.544;-17.6
1302.743;-17.72
1302.943;-17.82
1303.142;-17.94
1303.341;-18.06
1303.54;-18.17
1303.739;-18.28
1303.938;-18.37
1304.137;-18.48
1304.336;-18.57
1304.535;-18.66
1304.735;-18.74
1304.934;-18.79
1305.133;-18.86
1305.332;-18.9
1305.531;-18.94
1305.73;-18.97
1305.929;-18.97
1306.128;-18.99
1306.327;-18.96
1306.527;-18.94
1306.726;-18.92
1306.925;-18.86
1307.124;-18.83
1307.323;-18.76
1307.522;-18.7
1307.721;-18.62
1307.92;-18.54
1308.12;-18.5
1308.319;-18.42
1308.518;-18.36
1308.717;-18.28
1308.916;-18.17
1309.115;-18.09
1309.314;-17.98
1309.513;-17.94
1309.712;-17.89
1309.912;-17.86
1310.111;-17.82
1310.31;-17.73
1310.509;-17.66
1310.708;-17.56
1310.907;-17.54
1311.106;-17.54
1311.305;-17.53
1311.504;-17.52
1311.704;-17.47
1311.903;-17.42
1312.102;-17.39
1312.301;-17.4
1312.5;-17.43
1312.699;-17.43
1312.898;-17.46
1313.097;-17.44
1313.297;-17.45
1313.496;-17.48
1313.695;-17.5
1313.894;-17.53
1314.093;-17.55
1314.292;-17.6
1314.491;-17.63
1314.69;-17.66
1314.889;-17.69
1315.089;-17.71
1315.288;-17.74
1315.487;-17.77
1315.686;-17.83
1315.885;-17.87
1316.084;-17.9
1316.283;-17.93
1316.482;-17.94
1316.681;-17.97
1316.881;-18.0
1317.08;-18.06
1317.279;-18.1
1317.478;-18.13
1317.677;-18.15
1317.876;-18.14
1318.075;-18.17
1318.274;-18.19
1318.474;-18.24
1318.673;-18.28
1318.872;-18.28
1319.071;-18.31
1319.27;-18.31
1319.469;-18.34
1319.668;-18.39
1319.867;-18.42
1320.066;-18.47
1320.266;-18.48
1320.465;-18.52
1320.664;-18.55
1320.863;-18.6
1321.062;-18.66
1321.261;-18.71
1321.46;-18.78
1321.659;-18.83
1321.858;-18.9
1322.058;-18.97
1322.257;-19.06
1322.456;-19.16
1322.655;-19.25
1322.854;-19.36
1323.053;-19.46
1323.252;-19.58
1323.451;-19.71
1323.65;-19.84
1323.85;-20.01
1324.049;-20.15
1324.248;-20.32
1324.447;-20.48
1324.646;-20.66
1324.845;-20.86
1325.044;-21.06
1325.243;-21.29
1325.443;-21.49
1325.642;-21.73
1325.841;-21.97
1326.04;-22.22
1326.239;-22.5
1326.438;-22.77
1326.637;-23.06
1326.836;-23.33
1327.035;-23.63
1327.235;-23.95
1327.434;-24.27
1327.633;-24.62
1327.832;-24.96
1328.031;-25.31
1328.23;-25.65
1328.429;-26.0
1328.628;-26.38
1328.827;-26.75
1329.027;-27.14
1329.226;-27.5
1329.425;-27.85
1329.624;-28.19
1329.823;-28.62
1330.022;-28.88
1330.221;-29.18
1330.42;-29.48
1330.62;-29.74
1330.819;-29.99
1331.018;-30.18
1331.217;-30.35
1331.416;-30.48
1331.615;-30.56
1331.814;-30.63
1332.013;-30.65
1332.212;-30.65
1332.412;-30.63
1332.611;-30.58
1332.81;-30.53
1333.009;-30.44
1333.208;-30.36
1333.407;-30.26
1333.606;-30.17
1333.805;-30.09
1334.004;-29.99
1334.204;-29.92
1334.403;-29.82
1334.602;-29.75
1334.801;-29.69
1335.0;-29.64
1335.199;-29.61
1335.398;-29.56
1335.597;-29.54
1335.797;-29.52
1335.996;-29.52
1336.195;-29.54
1336.394;-29.55
1336.593;-29.59
1336.792;-29.62
1336.991;-29.67
1337.19;-29.72
1337.389;-29.8
1337.589;-29.89
1337.788;-29.98
1337.987;-30.1
1338.186;-30.2
1338.385;-30.32
1338.584;-30.46
1338.783;-30.6
1338.982;-30.77
1339.181;-30.92
1339.381;-31.1
1339.58;-31.28
1339.779;-31.47
1339.978;-31.69
1340.177;-31.9
1340.376;-32.13
1340.575;-32.35
1340.774;-32.59
1340.974;-32.84
1341.173;-33.09
1341.372;-33.35
1341.571;-33.61
1341.77;-33.89
1341.969;-34.17
1342.168;-34.45
1342.367;-34.76
1342.566;-35.04
1342.766;-35.36
1342.965;-35.65
1343.164;-35.96
1343.363;-36.29
1343.562;-36.59
1343.761;-36.92
1343.96;-37.24
1344.159;-37.56
1344.358;-37.87
1344.558;-38.19
1344.757;-38.57
1344.956;-38.8
1345.155;-39.11
1345.354;-39.38
1345.553;-39.67
1345.752;-39.94
1345.951;-40.21
1346.15;-40.47
1346.35;-40.71
1346.549;-40.97
1346.748;-41.19
1346.947;-41.42
1347.146;-41.64
1347.345;-41.81
1347.544;-42.03
1347.743;-42.25
1347.943;-42.48
1348.142;-42.67
1348.341;-42.86
1348.54;-43.02
1348.739;-43.14
1348.938;-43.29
1349.137;-43.44
1349.336;-43.59
1349.535;-43.77
1349.735;-43.93
1349.934;-44.11
1350.133;-44.27
1350.332;-44.52
1350.531;-44.75
1350.73;-44.96
1350.929;-45.17
1351.128;-45.34
1351.327;-45.53
1351.527;-45.76
1351.726;-46.05
1351.925;-46.35
1352.124;-46.61
1352.323;-46.89
1352.522;-47.22
1352.721;-47.51
1352.92;-47.83
1353.12;-48.24
1353.319;-48.59
1353.518;-48.91
1353.717;-49.32
1353.916;-49.67
1354.115;-50.05
1354.314;-50.51
1354.513;-50.99
1354.712;-51.61
1354.912;-52.23
1355.111;-52.84
1355.31;-53.33
1355.509;-53.78
1355.708;-54.35
1355.907;-55.08
1356.106;-55.79
1356.305;-56.46
1356.504;-57.09
1356.704;-57.44
1356.903;-57.97
1357.102;-58.96
1357.301;-59.41
1357.5;-59.89
1357.699;-60.24
1357.898;-60.36
1358.097;-60.27
1358.297;-60.17
1358.496;-60.07
1358.695;-59.72
1358.894;-59.36
1359.093;-58.88
1359.292;-58.38
1359.491;-58.16
1359.69;-57.94
1359.889;-57.56
1360.089;-57.05
1360.288;-56.62
1360.487;-56.05
1360.686;-55.81
1360.885;-55.73
1361.084;-55.62
1361.283;-55.4
1361.482;-55.15
1361.681;-55.05
1361.881;-54.89
1362.08;-54.81
1362.279;-54.82
1362.478;-54.97
1362.677;-54.79
1362.876;-54.51
1363.075;-54.25
1363.274;-53.82
1363.474;-53.71
1363.673;-53.64
1363.872;-53.64
1364.071;-53.68
1364.27;-53.77
1364.469;-53.89
1364.668;-54.33
1364.867;-54.51
1365.066;-54.43
1365.266;-54.49
1365.465;-54.38
1365.664;-54.4
1365.863;-54.4
1366.062;-54.38
1366.261;-54.37
1366.46;-54.39
1366.659;-54.51
1366.858;-54.74
1367.058;-54.87
1367.257;-54.99
1367.456;-55.2
1367.655;-55.38
1367.854;-55.67
1368.053;-55.78
1368.252;-55.83
1368.451;-56.06
1368.65;-56.21
1368.85;-56.31
1369.049;-56.3
1369.248;-56.3
1369.447;-56.17
1369.646;-56.25
1369.845;-56.51
1370.044;-56.71
1370.243;-56.81
1370.443;-56.82
1370.642;-56.83
1370.841;-57.02
1371.04;-57.27
1371.239;-57.4
1371.438;-57.36
1371.637;-57.33
1371.836;-57.19
1372.035;-57.29
1372.235;-57.42
1372.434;-57.49
1372.633;-57.47
1372.832;-57.44
1373.031;-57.41
1373.23;-57.44
1373.429;-57.54
1373.628;-57.59
1373.827;-57.62
1374.027;-57.67
1374.226;-57.7
1374.425;-57.78
1374.624;-57.86
1374.823;-58.0
1375.022;-58.13
1375.221;-58.2
1375.42;-58.25
1375.62;-58.33
1375.819;-58.39
1376.018;-58.58
1376.217;-58.67
1376.416;-58.79
1376.615;-58.94
1376.814;-59.08
1377.013;-59.35
1377.212;-59.57
1377.412;-59.72
1377.611;-59.88
1377.81;-59.92
1378.009;-60.05
1378.208;-60.24
1378.407;-60.48
1378.606;-60.82
1378.805;-61.22
1379.004;-61.53
1379.204;-61.77
1379.403;-61.91
1379.602;-62.02
1379.801;-62.21
1380.0;-62.53
1380.199;-62.89
1380.398;-63.27
1380.597;-63.94
1380.797;-64.63
1380.996;-65.09
1381.195;-65.37
1381.394;-65.45
1381.593;-65.35
1381.792;-65.62
1381.991;-65.85
1382.19;-66.13
1382.389;-66.6
1382.589;-67.22
1382.788;-67.89
1382.987;-68.34
1383.186;-68.21
1383.385;-68.02
1383.584;-67.96
1383.783;-67.92
1383.982;-68.1
1384.181;-68.05
1384.381;-67.95
1384.58;-67.77
1384.779;-67.68
1384.978;-67.72
1385.177;-67.82
1385.376;-67.67
1385.575;-67.42
1385.774;-67.21
1385.974;-66.97
1386.173;-66.77
1386.372;-66.67
1386.571;-66.53
1386.77;-66.25
1386.969;-66.1
1387.168;-65.94
1387.367;-65.81
1387.566;-65.64
1387.766;-65.78
1387.965;-65.82
1388.164;-65.89
1388.363;-65.91
1388.562;-65.76
1388.761;-65.5
1388.96;-65.35
1389.159;-65.2
1389.358;-65.17
1389.558;-65.12
1389.757;-65.13
1389.956;-65.15
1390.155;-65.27
1390.354;-65.28
1390.553;-65.37
1390.752;-65.32
1390.951;-65.37
1391.15;-65.52
1391.35;-65.56
1391.549;-65.7
1391.748;-65.8
1391.947;-65.92
1392.146;-66.17
1392.345;-66.45
1392.544;-66.97
1392.743;-67.18
1392.943;-67.29
1393.142;-67.26
1393.341;-67.27
1393.54;-67.39
1393.739;-67.58
1393.938;-67.91
1394.137;-68.07
1394.336;-68.25
1394.535;-68.59
1394.735;-68.92
1394.934;-69.26
1395.133;-69.86
1395.332;-70.25
1395.531;-70.53
1395.73;-70.83
1395.929;-71.09
1396.128;-71.34
1396.327;-71.69
1396.527;-71.98
1396.726;-72.51
1396.925;-72.85
1397.124;-72.91
1397.323;-72.7
1397.522;-73.05
1397.721;-73.15
1397.92;-73.59
1398.12;-73.68
1398.319;-73.41
1398.518;-73.49
1398.717;-73.55
1398.916;-73.4
1399.115;-73.33
1399.314;-73.49
1399.513;-73.3
1399.712;-73.42
1399.912;-73.66
1400.111;-73.11
1400.31;-72.95
1400.509;-72.5
1400.708;-72.74
1400.907;-73.04
1401.106;-72.52
1401.305;-72.39
1401.504;-71.94
1401.704;-71.98
1401.903;-71.63
1402.102;-71.38
1402.301;-71.21
1402.5;-71.33
1402.699;-71.11
1402.898;-71.16
1403.097;-71.31
1403.297;-71.18
1403.496;-71.11
1403.695;-71.16
1403.894;-70.95
1404.093;-70.95
1404.292;-71.03
1404.491;-71.11
1404.69;-71.1
1404.889;-71.59
1405.089;-71.93
1405.288;-71.59
1405.487;-71.7
1405.686;-71.51
1405.885;-71.46
1406.084;-71.41
1406.283;-71.65
1406.482;-71.59
1406.681;-71.65
1406.881;-72.03
1407.08;-71.94
1407.279;-72.33
1407.478;-72.53
1407.677;-72.53
1407.876;-72.61
1408.075;-72.45
1408.274;-72.72
1408.474;-72.73
1408.673;-72.85
1408.872;-72.74
1409.071;-72.98
1409.27;-73.09
1409.469;-73.82
1409.668;-74.06
1409.867;-73.57
1410.066;-73.81
1410.266;-73.97
1410.465;-74.21
1410.664;-74.16
1410.863;-74.45
1411.062;-74.53
1411.261;-74.12
1411.46;-74.32
1411.659;-74.3
1411.858;-74.4
1412.058;-74.68
1412.257;-74.51
1412.456;-74.69
1412.655;-74.78
1412.854;-74.69
1413.053;-75.03
1413.252;-74.99
1413.451;-74.88
1413.65;-75.21
1413.85;-75.71
1414.049;-76.16
1414.248;-76.33
1414.447;-75.52
1414.646;-75.99
1414.845;-76.16
1415.044;-75.87
1415.243;-75.77
1415.443;-75.77
1415.642;-76.07
1415.841;-76.32
1416.04;-76.25
1416.239;-76.14
1416.438;-76.1
1416.637;-76.25
1416.836;-76.3
1417.035;-76.42
1417.235;-76.19
1417.434;-76.48
1417.633;-76.87
1417.832;-76.62
1418.031;-77.08
1418.23;-76.73
1418.429;-76.52
1418.628;-76.93
1418.827;-76.52
1419.027;-76.8
1419.226;-76.98
1419.425;-76.6
1419.624;-77.02
1419.823;-77.18
1420.022;-78.12
1420.221;-76.98
1420.42;-77.42
1420.62;-77.77
1420.819;-76.73
1421.018;-78.0
1421.217;-77.63
1421.416;-78.0
1421.615;-76.7
1421.814;-77.2
1422.013;-76.99
1422.212;-77.64
1422.412;-76.72
1422.611;-77.84
1422.81;-77.64
1423.009;-77.94
1423.208;-76.51
1423.407;-78.01
1423.606;-77.75
1423.805;-78.57
1424.004;-78.11
1424.204;-78.03
1424.403;-77.89
1424.602;-77.22
1424.801;-76.72
1425.0;-76.99
