Wavelength (nm);Intensity (dBm)
1131.0;1131.0
1200.0;-61.17
1200.199;-61.15
1200.398;-61.14
1200.597;-61.16
1200.797;-61.1
1200.996;-61.05
1201.195;-61.05
1201.394;-61.04
1201.593;-60.97
1201.792;-60.93
1201.991;-60.92
1202.19;-60.89
1202.389;-60.79
1202.589;-60.77
1202.788;-60.77
1202.987;-60.74
1203.186;-60.64
1203.385;-60.6
1203.584;-60.61
1203.783;-60.58
1203.982;-60.51
1204.181;-60.49
1204.381;-60.51
1204.58;-60.48
1204.779;-60.44
1204.978;-60.41
1205.177;-60.38
1205.376;-60.38
1205.575;-60.37
1205.774;-60.32
1205.974;-60.29
1206.173;-60.25
1206.372;-60.23
1206.571;-60.19
1206.77;-60.13
1206.969;-60.1
1207.168;-60.11
1207.367;-60.01
1207.566;-59.96
1207.766;-59.91
1207.965;-59.88
1208.164;-59.82
1208.363;-59.75
1208.562;-59.68
1208.761;-59.64
1208.96;-59.6
1209.159;-59.5
1209.358;-59.42
1209.558;-59.4
1209.757;-59.34
1209.956;-59.25
1210.155;-59.18
1210.354;-59.11
1210.553;-59.08
1210.752;-59.01
1210.951;-58.92
1211.15;-58.88
1211.35;-58.82
1211.549;-58.77
1211.748;-58.72
1211.947;-58.66
1212.146;-58.64
1212.345;-58.58
1212.544;-58.55
1212.743;-58.49
1212.943;-58.49
1213.142;-58.49
1213.341;-58.43
1213.54;-58.4
1213.739;-58.41
1213.938;-58.4
1214.137;-58.38
1214.336;-58.32
1214.535;-58.34
1214.735;-58.34
1214.934;-58.28
1215.133;-58.25
1215.332;-58.22
1215.531;-58.21
1215.73;-58.16
1215.929;-58.11
1216.128;-58.06
1216.327;-58.04
1216.527;-58.02
1216.726;-57.93
1216.925;-57.87
1217.124;-57.86
1217.323;-57.8
1217.522;-57.74
1217.721;-57.68
1217.92;-57.65
1218.12;-57.65
1218.319;-57.58
1218.518;-57.54
1218.717;-57.53
1218.916;-57.5
1219.115;-57.48
1219.314;-57.43
1219.513;-57.43
1219.712;-57.42
1219.912;-57.38
1220.111;-57.35
1220.31;-57.35
1220.509;-57.35
1220.708;-57.31
1220.907;-57.25
1221.106;-57.24
1221.305;-57.22
1221.504;-57.18
1221.704;-57.12
1221.903;-57.08
1222.102;-57.08
1222.301;-57.02
1222.5;-56.94
1222.699;-56.89
1222.898;-56.87
1223.097;-56.83
1223.297;-56.76
1223.496;-56.71
1223.695;-56.69
1223.894;-56.65
1224.093;-56.61
1224.292;-56.57
1224.491;-56.56
1224.69;-56.52
1224.889;-56.48
1225.089;-56.48
1225.288;-56.47
1225.487;-56.44
1225.686;-56.41
1225.885;-56.41
1226.084;-56.42
1226.283;-56.4
1226.482;-56.37
1226.681;-56.36
1226.881;-56.35
1227.08;-56.33
1227.279;-56.29
1227.478;-56.27
1227.677;-56.25
1227.876;-56.2
1228.075;-56.15
1228.274;-56.1
1228.474;-56.05
1228.673;-56.0
1228.872;-55.92
1229.071;-55.86
1229.27;-55.8
1229.469;-55.7
1229.668;-55.63
1229.867;-55.56
1230.066;-55.52
1230.266;-55.41
1230.465;-55.32
1230.664;-55.24
1230.863;-55.18
1231.062;-55.1
1231.261;-55.01
1231.46;-54.95
1231.659;-54.87
1231.858;-54.76
1232.058;-54.69
1232.257;-54.59
1232.456;-54.5
1232.655;-54.4
1232.854;-54.28
1233.053;-54.21
1233.252;-54.09
1233.451;-53.98
1233.65;-53.88
1233.85;-53.77
1234.049;-53.67
1234.248;-53.54
1234.447;-53.43
1234.646;-53.33
1234.845;-53.22
1235.044;-53.1
1235.243;-52.99
1235.443;-52.89
1235.642;-52.77
1235.841;-52.64
1236.04;-52.56
1236.239;-52.43
1236.438;-52.32
1236.637;-52.2
1236.836;-52.1
1237.035;-52.0
1237.235;-51.89
1237.434;-51.79
1237.633;-51.69
1237.832;-51.6
1238.031;-51.51
1238.23;-51.42
1238.429;-51.35
1238.628;-51.26
1238.827;-51.18
1239.027;-51.12
1239.226;-51.05
1239.425;-50.99
1239.624;-50.91
1239.823;-50.85
1240.022;-50.8
1240.221;-50.73
1240.42;-50.68
1240.62;-50.62
1240.819;-50.56
1241.018;-50.47
1241.217;-50.4
1241.416;-50.34
1241.615;-50.23
1241.814;-50.14
1242.013;-50.05
1242.212;-49.95
1242.412;-49.86
1242.611;-49.73
1242.81;-49.62
1243.009;-49.49
1243.208;-49.35
1243.407;-49.24
1243.606;-49.08
1243.805;-48.95
1244.004;-48.8
1244.204;-48.65
1244.403;-48.52
1244.602;-48.35
1244.801;-48.2
1245.0;-48.05
1245.199;-47.89
1245.398;-47.75
1245.597;-47.57
1245.797;-47.42
1245.996;-47.25
1246.195;-47.08
1246.394;-46.93
1246.593;-46.75
1246.792;-46.59
1246.991;-46.41
1247.19;-46.25
1247.389;-46.09
1247.589;-45.92
1247.788;-45.74
1247.987;-45.61
1248.186;-45.47
1248.385;-45.32
1248.584;-45.18
1248.783;-45.06
1248.982;-44.93
1249.181;-44.82
1249.381;-44.72
1249.58;-44.61
1249.779;-44.54
1249.978;-44.45
1250.177;-44.38
1250.376;-44.32
1250.575;-44.26
1250.774;-44.24
1250.974;-44.2
1251.173;-44.19
1251.372;-44.18
1251.571;-44.18
1251.77;-44.21
1251.969;-44.22
1252.168;-44.25
1252.367;-44.28
1252.566;-44.34
1252.766;-44.42
1252.965;-44.49
1253.164;-44.59
1253.363;-44.68
1253.562;-44.8
1253.761;-44.92
1253.96;-45.05
1254.159;-45.19
1254.358;-45.31
1254.558;-45.44
1254.757;-45.57
1254.956;-45.66
1255.155;-45.76
1255.354;-45.81
1255.553;-45.83
1255.752;-45.81
1255.951;-45.73
1256.15;-45.64
1256.35;-45.46
1256.549;-45.26
1256.748;-45.02
1256.947;-44.73
1257.146;-44.42
1257.345;-44.07
1257.544;-43.71
1257.743;-43.33
1257.943;-42.94
1258.142;-42.56
1258.341;-42.15
1258.54;-41.76
1258.739;-41.35
1258.938;-40.95
1259.137;-40.58
1259.336;-40.18
1259.535;-39.81
1259.735;-39.45
1259.934;-39.09
1260.133;-38.77
1260.332;-38.43
1260.531;-38.13
1260.73;-37.84
1260.929;-37.55
1261.128;-37.3
1261.327;-37.05
1261.527;-36.84
1261.726;-36.63
1261.925;-36.44
1262.124;-36.28
1262.323;-36.12
1262.522;-35.98
1262.721;-35.88
1262.92;-35.8
1263.12;-35.72
1263.319;-35.66
1263.518;-35.64
1263.717;-35.62
1263.916;-35.63
1264.115;-35.66
1264.314;-35.71
1264.513;-35.8
1264.712;-35.89
1264.912;-36.03
1265.111;-36.17
1265.31;-36.35
1265.509;-36.58
1265.708;-36.82
1265.907;-37.1
1266.106;-37.39
1266.305;-37.71
1266.504;-38.07
1266.704;-38.52
1266.903;-38.84
1267.102;-39.21
1267.301;-39.57
1267.5;-39.88
1267.699;-40.12
1267.898;-40.25
1268.097;-40.26
1268.297;-40.12
1268.496;-39.82
1268.695;-39.4
1268.894;-38.86
1269.093;-38.22
1269.292;-37.55
1269.491;-36.84
1269.69;-36.12
1269.889;-35.28
1270.089;-34.69
1270.288;-34.01
1270.487;-33.34
1270.686;-32.7
1270.885;-32.06
1271.084;-31.46
1271.283;-30.89
1271.482;-30.34
1271.681;-29.83
1271.881;-29.33
1272.08;-28.87
1272.279;-28.43
1272.478;-28.01
1272.677;-27.63
1272.876;-27.25
1273.075;-26.91
1273.274;-26.57
1273.474;-26.26
1273.673;-25.92
1273.872;-25.69
1274.071;-25.45
1274.27;-25.19
1274.469;-24.98
1274.668;-24.75
1274.867;-24.55
1275.066;-24.37
1275.266;-24.18
1275.465;-24.03
1275.664;-23.87
1275.863;-23.74
1276.062;-23.62
1276.261;-23.5
1276.46;-23.42
1276.659;-23.32
1276.858;-23.24
1277.058;-23.19
1277.257;-23.15
1277.456;-23.14
1277.655;-23.12
1277.854;-23.13
1278.053;-23.15
1278.252;-23.18
1278.451;-23.25
1278.65;-23.3
1278.85;-23.39
1279.049;-23.49
1279.248;-23.61
1279.447;-23.76
1279.646;-23.9
1279.845;-24.09
1280.044;-24.27
1280.243;-24.49
1280.443;-24.74
1280.642;-25.0
1280.841;-25.3
1281.04;-25.61
1281.239;-25.97
1281.438;-26.37
1281.637;-26.78
1281.836;-27.25
1282.035;-27.75
1282.235;-28.41
1282.434;-28.9
1282.633;-29.55
1282.832;-30.24
1283.031;-30.96
1283.23;-31.69
1283.429;-32.39
1283.628;-33.01
1283.827;-33.47
1284.027;-33.68
1284.226;-33.59
1284.425;-33.19
1284.624;-32.56
1284.823;-31.79
1285.022;-30.93
1285.221;-30.06
1285.42;-29.19
1285.62;-28.36
1285.819;-27.57
1286.018;-26.82
1286.217;-26.0
1286.416;-25.45
1286.615;-24.85
1286.814;-24.26
1287.013;-23.71
1287.212;-23.19
1287.412;-22.69
1287.611;-22.25
1287.81;-21.81
1288.009;-21.41
1288.208;-21.03
1288.407;-20.67
1288.606;-20.34
1288.805;-20.02
1289.004;-19.72
1289.204;-19.43
1289.403;-19.17
1289.602;-18.93
1289.801;-18.69
1290.0;-18.48
1290.199;-18.27
1290.398;-18.07
1290.597;-17.91
1290.797;-17.73
1290.996;-17.57
1291.195;-17.4
1291.394;-17.26
1291.593;-17.12
1291.792;-16.99
1291.991;-16.89
1292.19;-16.77
1292.389;-16.67
1292.589;-16.56
1292.788;-16.46
1292.987;-16.39
1293.186;-16.31
1293.385;-16.25
1293.584;-16.16
1293.783;-16.1
1293.982;-16.04
1294.181;-15.99
1294.381;-15.94
1294.58;-15.88
1294.779;-15.85
1294.978;-15.8
1295.177;-15.76
1295.376;-15.71
1295.575;-15.67
1295.774;-15.64
1295.974;-15.59
1296.173;-15.56
1296.372;-15.52
1296.571;-15.47
1296.77;-15.44
1296.969;-15.4
1297.168;-15.38
1297.367;-15.34
1297.566;-15.3
1297.766;-15.28
1297.965;-15.25
1298.164;-15.24
1298.363;-15.2
1298.562;-15.17
1298.761;-15.15
1298.96;-15.14
1299.159;-15.14
1299.358;-15.12
1299.558;-15.11
1299.757;-15.11
1299.956;-15.11
1300.155;-15.14
1300.354;-15.14
1300.553;-15.16
1300.752;-15.17
1300.951;-15.2
1301.15;-15.26
1301.35;-15.29
1301.549;-15.36
1301.748;-15.4
1301.947;-15.47
1302.146;-15.55
1302.345;-15.63
1302.544;-15.74
1302.743;-15.82
1302.943;-15.94
1303.142;-16.07
1303.341;-16.19
1303.54;-16.35
1303.739;-16.5
1303.938;-16.67
1304.137;-16.85
1304.336;-17.04
1304.535;-17.26
1304.735;-17.47
1304.934;-17.71
1305.133;-17.95
1305.332;-18.26
1305.531;-18.5
1305.73;-18.78
1305.929;-19.09
1306.128;-19.41
1306.327;-19.74
1306.527;-20.09
1306.726;-20.45
1306.925;-20.83
1307.124;-21.2
1307.323;-21.59
1307.522;-21.98
1307.721;-22.36
1307.92;-22.74
1308.12;-23.09
1308.319;-23.43
1308.518;-23.7
1308.717;-23.93
1308.916;-24.1
1309.115;-24.2
1309.314;-24.23
1309.513;-24.16
1309.712;-24.02
1309.912;-23.84
1310.111;-23.59
1310.31;-23.32
1310.509;-22.99
1310.708;-22.65
1310.907;-22.29
1311.106;-21.92
1311.305;-21.57
1311.504;-21.21
1311.704;-20.88
1311.903;-20.54
1312.102;-20.21
1312.301;-19.92
1312.5;-19.64
1312.699;-19.37
1312.898;-19.1
1313.097;-18.86
1313.297;-18.64
1313.496;-18.44
1313.695;-18.26
1313.894;-18.07
1314.093;-17.92
1314.292;-17.76
1314.491;-17.63
1314.69;-17.51
1314.889;-17.39
1315.089;-17.3
1315.288;-17.2
1315.487;-17.13
1315.686;-17.06
1315.885;-16.99
1316.084;-16.96
1316.283;-16.91
1316.482;-16.9
1316.681;-16.87
1316.881;-16.86
1317.08;-16.89
1317.279;-16.89
1317.478;-16.92
1317.677;-16.93
1317.876;-16.96
1318.075;-17.0
1318.274;-17.04
1318.474;-17.11
1318.673;-17.16
1318.872;-17.22
1319.071;-17.29
1319.27;-17.36
1319.469;-17.45
1319.668;-17.52
1319.867;-17.61
1320.066;-17.69
1320.266;-17.78
1320.465;-17.88
1320.664;-17.97
1320.863;-18.07
1321.062;-18.16
1321.261;-18.26
1321.46;-18.36
1321.659;-18.46
1321.858;-18.58
1322.058;-18.67
1322.257;-18.78
1322.456;-18.88
1322.655;-18.98
1322.854;-19.1
1323.053;-19.2
1323.252;-19.33
1323.451;-19.43
1323.65;-19.54
1323.85;-19.66
1324.049;-19.77
1324.248;-19.91
1324.447;-20.02
1324.646;-20.15
1324.845;-20.27
1325.044;-20.4
1325.243;-20.54
1325.443;-20.67
1325.642;-20.83
1325.841;-20.97
1326.04;-21.12
1326.239;-21.29
1326.438;-21.44
1326.637;-21.62
1326.836;-21.79
1327.035;-21.97
1327.235;-22.15
1327.434;-22.34
1327.633;-22.56
1327.832;-22.75
1328.031;-22.97
1328.23;-23.19
1328.429;-23.41
1328.628;-23.65
1328.827;-23.89
1329.027;-24.15
1329.226;-24.4
1329.425;-24.67
1329.624;-24.93
1329.823;-25.21
1330.022;-25.5
1330.221;-25.77
1330.42;-26.08
1330.62;-26.37
1330.819;-26.67
1331.018;-26.99
1331.217;-27.3
1331.416;-27.62
1331.615;-27.92
1331.814;-28.22
1332.013;-28.58
1332.212;-28.82
1332.412;-29.1
1332.611;-29.39
1332.81;-29.65
1333.009;-29.89
1333.208;-30.13
1333.407;-30.32
1333.606;-30.51
1333.805;-30.68
1334.004;-30.82
1334.204;-30.95
1334.403;-31.03
1334.602;-31.11
1334.801;-31.16
1335.0;-31.2
1335.199;-31.23
1335.398;-31.24
1335.597;-31.25
1335.797;-31.25
1335.996;-31.25
1336.195;-31.24
1336.394;-31.22
1336.593;-31.22
1336.792;-31.19
1336.991;-31.19
1337.19;-31.18
1337.389;-31.18
1337.589;-31.2
1337.788;-31.21
1337.987;-31.24
1338.186;-31.26
1338.385;-31.31
1338.584;-31.36
1338.783;-31.41
1338.982;-31.5
1339.181;-31.57
1339.381;-31.67
1339.58;-31.76
1339.779;-31.88
1339.978;-32.01
1340.177;-32.15
1340.376;-32.31
1340.575;-32.47
1340.774;-32.64
1340.974;-32.82
1341.173;-33.01
1341.372;-33.22
1341.571;-33.43
1341.77;-33.67
1341.969;-33.91
1342.168;-34.16
1342.367;-34.43
1342.566;-34.7
1342.766;-35.01
1342.965;-35.3
1343.164;-35.63
1343.363;-35.96
1343.562;-36.3
1343.761;-36.67
1343.96;-37.03
1344.159;-37.43
1344.358;-37.83
1344.558;-38.24
1344.757;-38.77
1344.956;-39.12
1345.155;-39.58
1345.354;-40.03
1345.553;-40.51
1345.752;-40.99
1345.951;-41.49
1346.15;-42.0
1346.35;-42.52
1346.549;-43.06
1346.748;-43.56
1346.947;-44.08
1347.146;-44.59
1347.345;-45.06
1347.544;-45.58
1347.743;-46.06
1347.943;-46.51
1348.142;-46.89
1348.341;-47.23
1348.54;-47.49
1348.739;-47.69
1348.938;-47.86
1349.137;-47.97
1349.336;-48.01
1349.535;-48.05
1349.735;-48.04
1349.934;-48.02
1350.133;-47.98
1350.332;-47.99
1350.531;-47.96
1350.73;-47.88
1350.929;-47.8
1351.128;-47.67
1351.327;-47.6
1351.527;-47.55
1351.726;-47.55
1351.925;-47.55
1352.124;-47.52
1352.323;-47.52
1352.522;-47.57
1352.721;-47.58
1352.92;-47.6
1353.12;-47.74
1353.319;-47.77
1353.518;-47.85
1353.717;-47.97
1353.916;-48.03
1354.115;-48.14
1354.314;-48.34
1354.513;-48.56
1354.712;-48.85
1354.912;-49.14
1355.111;-49.42
1355.31;-49.61
1355.509;-49.76
1355.708;-50.05
1355.907;-50.46
1356.106;-50.78
1356.305;-51.08
1356.504;-51.41
1356.704;-51.52
1356.903;-51.86
1357.102;-52.43
1357.301;-52.96
1357.5;-53.48
1357.699;-53.97
1357.898;-54.45
1358.097;-54.85
1358.297;-55.41
1358.496;-56.08
1358.695;-56.65
1358.894;-57.32
1359.093;-57.94
1359.292;-58.58
1359.491;-59.22
1359.69;-59.95
1359.889;-60.57
1360.089;-60.94
1360.288;-61.17
1360.487;-61.14
1360.686;-61.13
1360.885;-61.23
1361.084;-61.16
1361.283;-60.85
1361.482;-60.39
1361.681;-60.13
1361.881;-59.66
1362.08;-59.31
1362.279;-59.05
1362.478;-58.9
1362.677;-58.4
1362.876;-57.78
1363.075;-57.27
1363.274;-56.6
1363.474;-56.2
1363.673;-55.93
1363.872;-55.71
1364.071;-55.54
1364.27;-55.42
1364.469;-55.35
1364.668;-55.61
1364.867;-55.58
1365.066;-55.31
1365.266;-55.2
1365.465;-54.95
1365.664;-54.81
1365.863;-54.66
1366.062;-54.49
1366.261;-54.35
1366.46;-54.25
1366.659;-54.27
1366.858;-54.37
1367.058;-54.4
1367.257;-54.42
1367.456;-54.55
1367.655;-54.66
1367.854;-54.86
1368.053;-54.91
1368.252;-54.88
1368.451;-55.09
1368.65;-55.18
1368.85;-55.25
1369.049;-55.21
1369.248;-55.18
1369.447;-55.05
1369.646;-55.13
1369.845;-55.4
1370.044;-55.62
1370.243;-55.74
1370.443;-55.8
1370.642;-55.82
1370.841;-56.05
1371.04;-56.34
1371.239;-56.54
1371.438;-56.57
1371.637;-56.58
1371.836;-56.5
1372.035;-56.66
1372.235;-56.86
1372.434;-56.99
1372.633;-57.04
1372.832;-57.07
1373.031;-57.1
1373.23;-57.2
1373.429;-57.33
1373.628;-57.43
1373.827;-57.5
1374.027;-57.59
1374.226;-57.65
1374.425;-57.76
1374.624;-57.86
1374.823;-58.0
1375.022;-58.15
1375.221;-58.25
1375.42;-58.28
1375.62;-58.36
1375.819;-58.46
1376.018;-58.56
1376.217;-58.68
1376.416;-58.77
1376.615;-58.87
1376.814;-58.97
1377.013;-59.23
1377.212;-59.41
1377.412;-59.52
1377.611;-59.59
1377.81;-59.56
1378.009;-59.65
1378.208;-59.79
1378.407;-59.96
1378.606;-60.23
1378.805;-60.58
1379.004;-60.8
1379.204;-60.95
1379.403;-61.0
1379.602;-61.03
1379.801;-61.15
1380.0;-61.38
1380.199;-61.67
1380.398;-61.95
1380.597;-62.55
1380.797;-63.19
1380.996;-63.47
1381.195;-63.73
1381.394;-63.66
1381.593;-63.51
1381.792;-63.69
1381.991;-63.89
1382.19;-64.15
1382.389;-64.56
1382.589;-65.27
1382.788;-65.96
1382.987;-66.41
1383.186;-66.49
1383.385;-66.28
1383.584;-66.28
1383.783;-66.55
1383.982;-66.77
1384.181;-66.97
1384.381;-66.98
1384.58;-67.04
1384.779;-67.09
1384.978;-67.44
1385.177;-67.56
1385.376;-67.77
1385.575;-67.72
1385.774;-67.64
1385.974;-67.52
1386.173;-67.47
1386.372;-67.4
1386.571;-67.34
1386.77;-67.12
1386.969;-67.01
1387.168;-66.83
1387.367;-66.67
1387.566;-66.58
1387.766;-66.69
1387.965;-66.81
1388.164;-66.88
1388.363;-66.81
1388.562;-66.67
1388.761;-66.28
1388.96;-66.11
1389.159;-66.0
1389.358;-65.81
1389.558;-65.72
1389.757;-65.78
1389.956;-65.81
1390.155;-65.71
1390.354;-65.72
1390.553;-65.64
1390.752;-65.61
1390.951;-65.57
1391.15;-65.59
1391.35;-65.6
1391.549;-65.69
1391.748;-65.72
1391.947;-65.78
1392.146;-65.99
1392.345;-66.18
1392.544;-66.61
1392.743;-66.75
1392.943;-66.87
1393.142;-66.67
1393.341;-66.75
1393.54;-66.7
1393.739;-66.87
1393.938;-67.0
1394.137;-67.14
1394.336;-67.43
1394.535;-67.62
1394.735;-67.96
1394.934;-68.22
1395.133;-68.6
1395.332;-69.1
1395.531;-69.27
1395.73;-69.61
1395.929;-69.72
1396.128;-69.83
1396.327;-70.25
1396.527;-70.71
1396.726;-70.99
1396.925;-71.29
1397.124;-71.43
1397.323;-71.53
1397.522;-71.78
1397.721;-72.05
1397.92;-72.21
1398.12;-72.65
1398.319;-72.82
1398.518;-72.89
1398.717;-73.34
1398.916;-73.15
1399.115;-73.68
1399.314;-73.39
1399.513;-73.98
1399.712;-74.13
1399.912;-74.03
1400.111;-74.17
1400.31;-74.06
1400.509;-73.86
1400.708;-74.07
1400.907;-74.26
1401.106;-73.57
1401.305;-73.64
1401.504;-73.13
1401.704;-72.92
1401.903;-72.87
1402.102;-72.88
1402.301;-72.58
1402.5;-72.31
1402.699;-72.36
1402.898;-72.17
1403.097;-72.15
1403.297;-71.68
1403.496;-71.79
1403.695;-71.54
1403.894;-71.46
1404.093;-71.71
1404.292;-71.78
1404.491;-71.93
1404.69;-71.71
1404.889;-72.02
1405.089;-72.5
1405.288;-72.34
1405.487;-72.13
1405.686;-71.99
1405.885;-71.79
1406.084;-71.83
1406.283;-71.68
1406.482;-71.68
1406.681;-71.98
1406.881;-72.27
1407.08;-72.06
1407.279;-72.47
1407.478;-72.84
1407.677;-73.06
1407.876;-72.74
1408.075;-72.65
1408.274;-73.02
1408.474;-73.05
1408.673;-72.94
1408.872;-72.99
1409.071;-73.71
1409.27;-74.16
1409.469;-73.93
1409.668;-74.0
1409.867;-74.68
1410.066;-74.47
1410.266;-74.1
1410.465;-74.38
1410.664;-74.54
1410.863;-74.32
1411.062;-74.35
1411.261;-74.56
1411.46;-74.8
1411.659;-75.25
1411.858;-75.17
1412.058;-74.88
1412.257;-75.54
1412.456;-75.76
1412.655;-75.43
1412.854;-75.86
1413.053;-75.73
1413.252;-76.04
1413.451;-75.85
1413.65;-75.95
1413.85;-76.3
1414.049;-75.52
1414.248;-75.95
1414.447;-76.67
1414.646;-77.1
1414.845;-76.3
1415.044;-75.81
1415.243;-76.43
1415.443;-76.48
1415.642;-76.65
1415.841;-76.83
1416.04;-76.27
1416.239;-75.92
1416.438;-76.32
1416.637;-76.08
1416.836;-76.47
1417.035;-76.78
1417.235;-77.08
1417.434;-76.65
1417.633;-76.32
1417.832;-76.98
1418.031;-76.52
1418.23;-76.43
1418.429;-76.65
1418.628;-77.16
1418.827;-77.18
1419.027;-77.7
1419.226;-77.93
1419.425;-76.89
1419.624;-76.64
1419.823;-77.42
1420.022;-78.9
1420.221;-78.22
1420.42;-77.25
1420.62;-77.38
1420.819;-77.77
1421.018;-77.25
1421.217;-76.87
1421.416;-77.68
1421.615;-77.91
1421.814;-76.68
1422.013;-77.24
1422.212;-77.01
1422.412;-76.94
1422.611;-77.43
1422.81;-77.24
1423.009;-77.22
1423.208;-77.78
1423.407;-77.49
1423.606;-78.03
1423.805;-77.78
1424.004;-77.82
1424.204;-77.82
1424.403;-78.25
1424.602;-77.53
1424.801;-77.43
1425.0;-78.25
