Wavelength (nm);Intensity (dBm)
1131.0;1131.0
1200.0;-61.27
1200.199;-61.2
1200.398;-61.17
1200.597;-61.17
1200.797;-61.17
1200.996;-61.12
1201.195;-61.1
1201.394;-61.08
1201.593;-61.03
1201.792;-61.01
1201.991;-60.97
1202.19;-60.94
1202.389;-60.84
1202.589;-60.83
1202.788;-60.83
1202.987;-60.8
1203.186;-60.71
1203.385;-60.67
1203.584;-60.73
1203.783;-60.72
1203.982;-60.63
1204.181;-60.62
1204.381;-60.64
1204.58;-60.62
1204.779;-60.59
1204.978;-60.56
1205.177;-60.56
1205.376;-60.55
1205.575;-60.52
1205.774;-60.47
1205.974;-60.49
1206.173;-60.46
1206.372;-60.45
1206.571;-60.41
1206.77;-60.36
1206.969;-60.34
1207.168;-60.33
1207.367;-60.26
1207.566;-60.2
1207.766;-60.18
1207.965;-60.17
1208.164;-60.08
1208.363;-60.04
1208.562;-60.0
1208.761;-59.97
1208.96;-59.91
1209.159;-59.83
1209.358;-59.78
1209.558;-59.73
1209.757;-59.68
1209.956;-59.58
1210.155;-59.5
1210.354;-59.46
1210.553;-59.38
1210.752;-59.28
1210.951;-59.19
1211.15;-59.12
1211.35;-59.09
1211.549;-59.01
1211.748;-58.93
1211.947;-58.86
1212.146;-58.82
1212.345;-58.77
1212.544;-58.7
1212.743;-58.64
1212.943;-58.62
1213.142;-58.6
1213.341;-58.55
1213.54;-58.49
1213.739;-58.48
1213.938;-58.47
1214.137;-58.41
1214.336;-58.36
1214.535;-58.36
1214.735;-58.34
1214.934;-58.28
1215.133;-58.21
1215.332;-58.2
1215.531;-58.17
1215.73;-58.12
1215.929;-58.05
1216.128;-58.0
1216.327;-57.98
1216.527;-57.93
1216.726;-57.85
1216.925;-57.79
1217.124;-57.76
1217.323;-57.73
1217.522;-57.66
1217.721;-57.63
1217.92;-57.61
1218.12;-57.58
1218.319;-57.53
1218.518;-57.5
1218.717;-57.51
1218.916;-57.5
1219.115;-57.47
1219.314;-57.45
1219.513;-57.47
1219.712;-57.48
1219.912;-57.46
1220.111;-57.43
1220.31;-57.44
1220.509;-57.46
1220.708;-57.45
1220.907;-57.41
1221.106;-57.41
1221.305;-57.44
1221.504;-57.4
1221.704;-57.36
1221.903;-57.36
1222.102;-57.35
1222.301;-57.34
1222.5;-57.28
1222.699;-57.28
1222.898;-57.27
1223.097;-57.23
1223.297;-57.19
1223.496;-57.15
1223.695;-57.15
1223.894;-57.11
1224.093;-57.06
1224.292;-57.06
1224.491;-57.03
1224.69;-56.99
1224.889;-56.94
1225.089;-56.92
1225.288;-56.92
1225.487;-56.86
1225.686;-56.82
1225.885;-56.8
1226.084;-56.77
1226.283;-56.74
1226.482;-56.67
1226.681;-56.64
1226.881;-56.6
1227.08;-56.52
1227.279;-56.48
1227.478;-56.4
1227.677;-56.35
1227.876;-56.26
1228.075;-56.15
1228.274;-56.08
1228.474;-55.96
1228.673;-55.86
1228.872;-55.7
1229.071;-55.61
1229.27;-55.52
1229.469;-55.38
1229.668;-55.26
1229.867;-55.13
1230.066;-55.02
1230.266;-54.88
1230.465;-54.75
1230.664;-54.66
1230.863;-54.56
1231.062;-54.43
1231.261;-54.34
1231.46;-54.26
1231.659;-54.17
1231.858;-54.06
1232.058;-53.97
1232.257;-53.87
1232.456;-53.77
1232.655;-53.68
1232.854;-53.58
1233.053;-53.51
1233.252;-53.41
1233.451;-53.29
1233.65;-53.21
1233.85;-53.1
1234.049;-53.01
1234.248;-52.9
1234.447;-52.8
1234.646;-52.73
1234.845;-52.62
1235.044;-52.52
1235.243;-52.42
1235.443;-52.32
1235.642;-52.24
1235.841;-52.13
1236.04;-52.05
1236.239;-51.95
1236.438;-51.86
1236.637;-51.79
1236.836;-51.69
1237.035;-51.62
1237.235;-51.53
1237.434;-51.46
1237.633;-51.4
1237.832;-51.33
1238.031;-51.27
1238.23;-51.21
1238.429;-51.15
1238.628;-51.11
1238.827;-51.04
1239.027;-51.01
1239.226;-50.95
1239.425;-50.9
1239.624;-50.87
1239.823;-50.82
1240.022;-50.8
1240.221;-50.74
1240.42;-50.7
1240.62;-50.67
1240.819;-50.62
1241.018;-50.57
1241.217;-50.5
1241.416;-50.45
1241.615;-50.38
1241.814;-50.31
1242.013;-50.26
1242.212;-50.18
1242.412;-50.1
1242.611;-50.01
1242.81;-49.93
1243.009;-49.85
1243.208;-49.76
1243.407;-49.67
1243.606;-49.58
1243.805;-49.49
1244.004;-49.4
1244.204;-49.3
1244.403;-49.21
1244.602;-49.11
1244.801;-49.02
1245.0;-48.94
1245.199;-48.83
1245.398;-48.72
1245.597;-48.61
1245.797;-48.5
1245.996;-48.39
1246.195;-48.26
1246.394;-48.13
1246.593;-47.99
1246.792;-47.84
1246.991;-47.71
1247.19;-47.56
1247.389;-47.42
1247.589;-47.26
1247.788;-47.1
1247.987;-46.94
1248.186;-46.77
1248.385;-46.61
1248.584;-46.45
1248.783;-46.3
1248.982;-46.17
1249.181;-46.01
1249.381;-45.86
1249.58;-45.69
1249.779;-45.57
1249.978;-45.44
1250.177;-45.3
1250.376;-45.17
1250.575;-45.03
1250.774;-44.9
1250.974;-44.8
1251.173;-44.68
1251.372;-44.56
1251.571;-44.45
1251.77;-44.34
1251.969;-44.24
1252.168;-44.12
1252.367;-44.02
1252.566;-43.9
1252.766;-43.79
1252.965;-43.7
1253.164;-43.59
1253.363;-43.51
1253.562;-43.41
1253.761;-43.3
1253.96;-43.2
1254.159;-43.08
1254.358;-42.98
1254.558;-42.88
1254.757;-42.8
1254.956;-42.71
1255.155;-42.61
1255.354;-42.51
1255.553;-42.4
1255.752;-42.3
1255.951;-42.21
1256.15;-42.12
1256.35;-42.03
1256.549;-41.93
1256.748;-41.84
1256.947;-41.75
1257.146;-41.66
1257.345;-41.58
1257.544;-41.49
1257.743;-41.39
1257.943;-41.29
1258.142;-41.2
1258.341;-41.12
1258.54;-41.04
1258.739;-40.95
1258.938;-40.85
1259.137;-40.77
1259.336;-40.69
1259.535;-40.6
1259.735;-40.53
1259.934;-40.45
1260.133;-40.38
1260.332;-40.32
1260.531;-40.26
1260.73;-40.21
1260.929;-40.16
1261.128;-40.13
1261.327;-40.13
1261.527;-40.13
1261.726;-40.14
1261.925;-40.13
1262.124;-40.14
1262.323;-40.17
1262.522;-40.22
1262.721;-40.29
1262.92;-40.36
1263.12;-40.45
1263.319;-40.54
1263.518;-40.64
1263.717;-40.77
1263.916;-40.9
1264.115;-41.07
1264.314;-41.23
1264.513;-41.38
1264.712;-41.54
1264.912;-41.69
1265.111;-41.85
1265.31;-42.01
1265.509;-42.15
1265.708;-42.25
1265.907;-42.29
1266.106;-42.3
1266.305;-42.24
1266.504;-42.1
1266.704;-41.88
1266.903;-41.58
1267.102;-41.26
1267.301;-40.88
1267.5;-40.45
1267.699;-39.95
1267.898;-39.37
1268.097;-38.8
1268.297;-38.22
1268.496;-37.67
1268.695;-37.13
1268.894;-36.58
1269.093;-35.93
1269.292;-35.48
1269.491;-34.98
1269.69;-34.46
1269.889;-33.96
1270.089;-33.48
1270.288;-33.01
1270.487;-32.57
1270.686;-32.12
1270.885;-31.69
1271.084;-31.28
1271.283;-30.88
1271.482;-30.52
1271.681;-30.14
1271.881;-29.79
1272.08;-29.46
1272.279;-29.13
1272.478;-28.83
1272.677;-28.53
1272.876;-28.25
1273.075;-27.99
1273.274;-27.74
1273.474;-27.51
1273.673;-27.26
1273.872;-27.05
1274.071;-26.84
1274.27;-26.65
1274.469;-26.48
1274.668;-26.3
1274.867;-26.15
1275.066;-25.97
1275.266;-25.87
1275.465;-25.73
1275.664;-25.61
1275.863;-25.51
1276.062;-25.4
1276.261;-25.32
1276.46;-25.24
1276.659;-25.17
1276.858;-25.13
1277.058;-25.08
1277.257;-25.05
1277.456;-25.02
1277.655;-25.03
1277.854;-25.04
1278.053;-25.06
1278.252;-25.1
1278.451;-25.14
1278.65;-25.19
1278.85;-25.27
1279.049;-25.35
1279.248;-25.47
1279.447;-25.58
1279.646;-25.71
1279.845;-25.85
1280.044;-26.0
1280.243;-26.19
1280.443;-26.36
1280.642;-26.58
1280.841;-26.8
1281.04;-27.03
1281.239;-27.3
1281.438;-27.56
1281.637;-27.85
1281.836;-28.15
1282.035;-28.55
1282.235;-28.82
1282.434;-29.17
1282.633;-29.55
1282.832;-29.9
1283.031;-30.27
1283.23;-30.58
1283.429;-30.87
1283.628;-31.12
1283.827;-31.31
1284.027;-31.42
1284.226;-31.4
1284.425;-31.29
1284.624;-31.08
1284.823;-30.78
1285.022;-30.41
1285.221;-29.96
1285.42;-29.48
1285.62;-28.97
1285.819;-28.44
1286.018;-27.92
1286.217;-27.37
1286.416;-26.86
1286.615;-26.35
1286.814;-25.77
1287.013;-25.38
1287.212;-24.92
1287.412;-24.49
1287.611;-24.04
1287.81;-23.62
1288.009;-23.22
1288.208;-22.85
1288.407;-22.51
1288.606;-22.17
1288.805;-21.85
1289.004;-21.51
1289.204;-21.2
1289.403;-20.92
1289.602;-20.64
1289.801;-20.41
1290.0;-20.15
1290.199;-19.9
1290.398;-19.67
1290.597;-19.44
1290.797;-19.24
1290.996;-19.02
1291.195;-18.83
1291.394;-18.64
1291.593;-18.45
1291.792;-18.28
1291.991;-18.1
1292.19;-17.94
1292.389;-17.79
1292.589;-17.63
1292.788;-17.5
1292.987;-17.36
1293.186;-17.23
1293.385;-17.1
1293.584;-16.98
1293.783;-16.88
1293.982;-16.76
1294.181;-16.68
1294.381;-16.57
1294.58;-16.47
1294.779;-16.38
1294.978;-16.29
1295.177;-16.22
1295.376;-16.12
1295.575;-16.06
1295.774;-15.99
1295.974;-15.91
1296.173;-15.85
1296.372;-15.79
1296.571;-15.73
1296.77;-15.67
1296.969;-15.63
1297.168;-15.57
1297.367;-15.53
1297.566;-15.49
1297.766;-15.45
1297.965;-15.43
1298.164;-15.39
1298.363;-15.37
1298.562;-15.34
1298.761;-15.33
1298.96;-15.33
1299.159;-15.32
1299.358;-15.33
1299.558;-15.33
1299.757;-15.33
1299.956;-15.37
1300.155;-15.38
1300.354;-15.42
1300.553;-15.43
1300.752;-15.47
1300.951;-15.52
1301.15;-15.58
1301.35;-15.64
1301.549;-15.7
1301.748;-15.77
1301.947;-15.84
1302.146;-15.93
1302.345;-16.02
1302.544;-16.11
1302.743;-16.21
1302.943;-16.33
1303.142;-16.44
1303.341;-16.57
1303.54;-16.7
1303.739;-16.84
1303.938;-16.97
1304.137;-17.13
1304.336;-17.3
1304.535;-17.46
1304.735;-17.64
1304.934;-17.8
1305.133;-17.99
1305.332;-18.17
1305.531;-18.4
1305.73;-18.56
1305.929;-18.73
1306.128;-18.93
1306.327;-19.12
1306.527;-19.31
1306.726;-19.5
1306.925;-19.66
1307.124;-19.84
1307.323;-19.99
1307.522;-20.14
1307.721;-20.29
1307.92;-20.4
1308.12;-20.52
1308.319;-20.6
1308.518;-20.67
1308.717;-20.72
1308.916;-20.74
1309.115;-20.75
1309.314;-20.72
1309.513;-20.69
1309.712;-20.64
1309.912;-20.55
1310.111;-20.48
1310.31;-20.36
1310.509;-20.25
1310.708;-20.12
1310.907;-19.97
1311.106;-19.85
1311.305;-19.68
1311.504;-19.55
1311.704;-19.39
1311.903;-19.24
1312.102;-19.1
1312.301;-18.94
1312.5;-18.82
1312.699;-18.68
1312.898;-18.54
1313.097;-18.42
1313.297;-18.3
1313.496;-18.21
1313.695;-18.09
1313.894;-17.99
1314.093;-17.9
1314.292;-17.81
1314.491;-17.75
1314.69;-17.66
1314.889;-17.6
1315.089;-17.53
1315.288;-17.47
1315.487;-17.44
1315.686;-17.38
1315.885;-17.36
1316.084;-17.32
1316.283;-17.3
1316.482;-17.29
1316.681;-17.27
1316.881;-17.28
1317.08;-17.28
1317.279;-17.29
1317.478;-17.3
1317.677;-17.31
1317.876;-17.34
1318.075;-17.35
1318.274;-17.39
1318.474;-17.41
1318.673;-17.46
1318.872;-17.5
1319.071;-17.55
1319.27;-17.6
1319.469;-17.64
1319.668;-17.71
1319.867;-17.76
1320.066;-17.82
1320.266;-17.89
1320.465;-17.95
1320.664;-18.04
1320.863;-18.1
1321.062;-18.17
1321.261;-18.25
1321.46;-18.33
1321.659;-18.43
1321.858;-18.5
1322.058;-18.6
1322.257;-18.69
1322.456;-18.78
1322.655;-18.9
1322.854;-18.99
1323.053;-19.11
1323.252;-19.22
1323.451;-19.33
1323.65;-19.46
1323.85;-19.58
1324.049;-19.72
1324.248;-19.85
1324.447;-19.99
1324.646;-20.13
1324.845;-20.28
1325.044;-20.45
1325.243;-20.6
1325.443;-20.78
1325.642;-20.95
1325.841;-21.13
1326.04;-21.32
1326.239;-21.51
1326.438;-21.71
1326.637;-21.9
1326.836;-22.11
1327.035;-22.33
1327.235;-22.55
1327.434;-22.8
1327.633;-23.02
1327.832;-23.27
1328.031;-23.52
1328.23;-23.77
1328.429;-24.05
1328.628;-24.31
1328.827;-24.59
1329.027;-24.86
1329.226;-25.15
1329.425;-25.44
1329.624;-25.72
1329.823;-26.02
1330.022;-26.31
1330.221;-26.6
1330.42;-26.9
1330.62;-27.19
1330.819;-27.5
1331.018;-27.78
1331.217;-28.07
1331.416;-28.33
1331.615;-28.66
1331.814;-28.85
1332.013;-29.09
1332.212;-29.31
1332.412;-29.51
1332.611;-29.71
1332.81;-29.86
1333.009;-30.01
1333.208;-30.13
1333.407;-30.23
1333.606;-30.32
1333.805;-30.38
1334.004;-30.44
1334.204;-30.46
1334.403;-30.48
1334.602;-30.49
1334.801;-30.49
1335.0;-30.5
1335.199;-30.48
1335.398;-30.48
1335.597;-30.45
1335.797;-30.44
1335.996;-30.45
1336.195;-30.44
1336.394;-30.44
1336.593;-30.43
1336.792;-30.43
1336.991;-30.45
1337.19;-30.46
1337.389;-30.5
1337.589;-30.53
1337.788;-30.58
1337.987;-30.63
1338.186;-30.69
1338.385;-30.77
1338.584;-30.84
1338.783;-30.94
1338.982;-31.03
1339.181;-31.14
1339.381;-31.27
1339.58;-31.39
1339.779;-31.54
1339.978;-31.69
1340.177;-31.86
1340.376;-32.03
1340.575;-32.21
1340.774;-32.41
1340.974;-32.6
1341.173;-32.82
1341.372;-33.03
1341.571;-33.27
1341.77;-33.51
1341.969;-33.76
1342.168;-34.03
1342.367;-34.29
1342.566;-34.58
1342.766;-34.87
1342.965;-35.17
1343.164;-35.49
1343.363;-35.81
1343.562;-36.15
1343.761;-36.49
1343.96;-36.85
1344.159;-37.21
1344.358;-37.58
1344.558;-37.98
1344.757;-38.36
1344.956;-38.84
1345.155;-39.15
1345.354;-39.55
1345.553;-39.95
1345.752;-40.35
1345.951;-40.78
1346.15;-41.18
1346.35;-41.59
1346.549;-42.0
1346.748;-42.39
1346.947;-42.78
1347.146;-43.14
1347.345;-43.49
1347.544;-43.85
1347.743;-44.21
1347.943;-44.53
1348.142;-44.8
1348.341;-45.08
1348.54;-45.26
1348.739;-45.45
1348.938;-45.61
1349.137;-45.75
1349.336;-45.87
1349.535;-45.96
1349.735;-46.05
1349.934;-46.14
1350.133;-46.23
1350.332;-46.37
1350.531;-46.47
1350.73;-46.54
1350.929;-46.57
1351.128;-46.59
1351.327;-46.63
1351.527;-46.71
1351.726;-46.85
1351.925;-46.94
1352.124;-47.04
1352.323;-47.12
1352.522;-47.28
1352.721;-47.38
1352.92;-47.5
1353.12;-47.74
1353.319;-47.83
1353.518;-48.01
1353.717;-48.18
1353.916;-48.33
1354.115;-48.57
1354.314;-48.8
1354.513;-49.06
1354.712;-49.45
1354.912;-49.84
1355.111;-50.16
1355.31;-50.44
1355.509;-50.63
1355.708;-51.0
1355.907;-51.48
1356.106;-51.87
1356.305;-52.25
1356.504;-52.63
1356.704;-52.82
1356.903;-53.23
1357.102;-53.88
1357.301;-54.5
1357.5;-55.08
1357.699;-55.64
1357.898;-56.17
1358.097;-56.63
1358.297;-57.23
1358.496;-57.93
1358.695;-58.62
1358.894;-59.12
1359.093;-59.65
1359.292;-59.98
1359.491;-60.51
1359.69;-60.92
1359.889;-61.09
1360.089;-60.99
1360.288;-60.77
1360.487;-60.41
1360.686;-60.05
1360.885;-59.91
1361.084;-59.65
1361.283;-59.24
1361.482;-58.77
1361.681;-58.48
1361.881;-58.11
1362.08;-57.8
1362.279;-57.64
1362.478;-57.54
1362.677;-57.15
1362.876;-56.63
1363.075;-56.12
1363.274;-55.59
1363.474;-55.32
1363.673;-55.08
1363.872;-54.9
1364.071;-54.8
1364.27;-54.74
1364.469;-54.74
1364.668;-55.07
1364.867;-55.08
1365.066;-54.86
1365.266;-54.78
1365.465;-54.57
1365.664;-54.48
1365.863;-54.37
1366.062;-54.26
1366.261;-54.13
1366.46;-54.07
1366.659;-54.1
1366.858;-54.25
1367.058;-54.33
1367.257;-54.36
1367.456;-54.54
1367.655;-54.64
1367.854;-54.87
1368.053;-54.94
1368.252;-54.93
1368.451;-55.18
1368.65;-55.28
1368.85;-55.37
1369.049;-55.31
1369.248;-55.31
1369.447;-55.2
1369.646;-55.29
1369.845;-55.59
1370.044;-55.79
1370.243;-55.93
1370.443;-55.96
1370.642;-56.01
1370.841;-56.26
1371.04;-56.53
1371.239;-56.74
1371.438;-56.73
1371.637;-56.76
1371.836;-56.67
1372.035;-56.84
1372.235;-57.03
1372.434;-57.14
1372.633;-57.18
1372.832;-57.19
1373.031;-57.22
1373.23;-57.3
1373.429;-57.43
1373.628;-57.51
1373.827;-57.55
1374.027;-57.65
1374.226;-57.68
1374.425;-57.81
1374.624;-57.9
1374.823;-58.02
1375.022;-58.19
1375.221;-58.23
1375.42;-58.29
1375.62;-58.33
1375.819;-58.38
1376.018;-58.56
1376.217;-58.64
1376.416;-58.72
1376.615;-58.81
1376.814;-58.95
1377.013;-59.17
1377.212;-59.36
1377.412;-59.43
1377.611;-59.53
1377.81;-59.51
1378.009;-59.59
1378.208;-59.73
1378.407;-59.91
1378.606;-60.21
1378.805;-60.54
1379.004;-60.74
1379.204;-60.91
1379.403;-60.96
1379.602;-61.05
1379.801;-61.17
1380.0;-61.4
1380.199;-61.69
1380.398;-61.96
1380.597;-62.62
1380.797;-63.25
1380.996;-63.56
1381.195;-63.82
1381.394;-63.73
1381.593;-63.64
1381.792;-63.85
1381.991;-64.03
1382.19;-64.33
1382.389;-64.83
1382.589;-65.48
1382.788;-66.12
1382.987;-66.57
1383.186;-66.71
1383.385;-66.64
1383.584;-66.62
1383.783;-66.81
1383.982;-67.13
1384.181;-67.33
1384.381;-67.5
1384.58;-67.49
1384.779;-67.72
1384.978;-68.02
1385.177;-68.13
1385.376;-68.12
1385.575;-67.9
1385.774;-67.99
1385.974;-67.93
1386.173;-67.89
1386.372;-67.85
1386.571;-67.57
1386.77;-67.55
1386.969;-67.25
1387.168;-67.05
1387.367;-66.93
1387.566;-66.79
1387.766;-66.93
1387.965;-66.96
1388.164;-66.98
1388.363;-66.93
1388.562;-66.69
1388.761;-66.35
1388.96;-66.12
1389.159;-65.97
1389.358;-65.84
1389.558;-65.8
1389.757;-65.74
1389.956;-65.77
1390.155;-65.74
1390.354;-65.65
1390.553;-65.61
1390.752;-65.55
1390.951;-65.56
1391.15;-65.58
1391.35;-65.57
1391.549;-65.6
1391.748;-65.61
1391.947;-65.73
1392.146;-65.86
1392.345;-66.12
1392.544;-66.53
1392.743;-66.81
1392.943;-66.81
1393.142;-66.81
1393.341;-66.57
1393.54;-66.56
1393.739;-66.79
1393.938;-67.01
1394.137;-67.19
1394.336;-67.39
1394.535;-67.5
1394.735;-67.78
1394.934;-68.19
1395.133;-68.79
1395.332;-69.1
1395.531;-69.3
1395.73;-69.54
1395.929;-69.72
1396.128;-70.01
1396.327;-70.42
1396.527;-70.86
1396.726;-71.4
1396.925;-71.51
1397.124;-71.82
1397.323;-71.77
1397.522;-72.13
1397.721;-72.49
1397.92;-72.57
1398.12;-72.81
1398.319;-73.14
1398.518;-73.22
1398.717;-73.6
1398.916;-73.77
1399.115;-74.19
1399.314;-74.49
1399.513;-73.79
1399.712;-74.18
1399.912;-74.56
1400.111;-74.09
1400.31;-74.07
1400.509;-74.03
1400.708;-74.37
1400.907;-74.07
1401.106;-73.93
1401.305;-73.56
1401.504;-73.4
1401.704;-73.18
1401.903;-73.05
1402.102;-72.63
1402.301;-72.49
1402.5;-72.4
1402.699;-72.2
1402.898;-72.23
1403.097;-71.97
1403.297;-71.82
1403.496;-71.93
1403.695;-71.76
1403.894;-71.83
1404.093;-71.89
1404.292;-71.9
1404.491;-71.86
1404.69;-71.78
1404.889;-72.23
1405.089;-72.33
1405.288;-72.32
1405.487;-72.12
1405.686;-71.95
1405.885;-71.76
1406.084;-71.88
1406.283;-72.05
1406.482;-71.79
1406.681;-72.0
1406.881;-72.23
1407.08;-72.43
1407.279;-72.8
1407.478;-72.96
1407.677;-72.85
1407.876;-72.84
1408.075;-72.69
1408.274;-72.95
1408.474;-72.84
1408.673;-73.15
1408.872;-73.62
1409.071;-73.54
1409.27;-73.78
1409.469;-74.16
1409.668;-74.41
1409.867;-74.15
1410.066;-74.56
1410.266;-74.65
1410.465;-74.46
1410.664;-74.55
1410.863;-74.62
1411.062;-74.47
1411.261;-75.3
1411.46;-74.81
1411.659;-74.78
1411.858;-74.84
1412.058;-75.03
1412.257;-75.63
1412.456;-75.3
1412.655;-75.82
1412.854;-75.33
1413.053;-75.54
1413.252;-75.58
1413.451;-75.52
1413.65;-75.48
1413.85;-75.92
1414.049;-75.49
1414.248;-75.86
1414.447;-76.13
1414.646;-76.52
1414.845;-75.62
1415.044;-77.19
1415.243;-76.16
1415.443;-76.3
1415.642;-76.07
1415.841;-76.6
1416.04;-76.08
1416.239;-76.07
1416.438;-75.99
1416.637;-76.6
1416.836;-76.62
1417.035;-76.17
1417.235;-75.99
1417.434;-76.29
1417.633;-77.02
1417.832;-76.48
1418.031;-77.02
1418.23;-76.83
1418.429;-76.47
1418.628;-76.87
1418.827;-77.25
1419.027;-77.3
1419.226;-77.42
1419.425;-76.62
1419.624;-76.94
1419.823;-77.48
1420.022;-77.0
1420.221;-76.85
1420.42;-76.8
1420.62;-77.4
1420.819;-78.02
1421.018;-77.25
1421.217;-77.42
1421.416;-77.4
1421.615;-77.39
1421.814;-77.71
1422.013;-76.74
1422.212;-77.49
1422.412;-77.41
1422.611;-78.11
1422.81;-79.15
1423.009;-77.62
1423.208;-77.17
1423.407;-77.17
1423.606;-77.11
1423.805;-77.6
1424.004;-77.05
1424.204;-77.47
1424.403;-77.56
1424.602;-77.51
1424.801;-77.35
1425.0;-77.15
