Wavelength (nm);Intensity (dBm)
1131.0;1131.0
1200.0;-61.03
1200.199;-61.01
1200.398;-60.99
1200.597;-61.02
1200.797;-61.02
1200.996;-60.97
1201.195;-60.96
1201.394;-60.93
1201.593;-60.87
1201.792;-60.84
1201.991;-60.84
1202.19;-60.78
1202.389;-60.68
1202.589;-60.65
1202.788;-60.66
1202.987;-60.64
1203.186;-60.53
1203.385;-60.48
1203.584;-60.53
1203.783;-60.49
1203.982;-60.42
1204.181;-60.4
1204.381;-60.39
1204.58;-60.4
1204.779;-60.34
1204.978;-60.32
1205.177;-60.32
1205.376;-60.33
1205.575;-60.3
1205.774;-60.27
1205.974;-60.21
1206.173;-60.21
1206.372;-60.19
1206.571;-60.16
1206.77;-60.09
1206.969;-60.07
1207.168;-60.06
1207.367;-59.97
1207.566;-59.92
1207.766;-59.88
1207.965;-59.86
1208.164;-59.8
1208.363;-59.7
1208.562;-59.66
1208.761;-59.62
1208.96;-59.58
1209.159;-59.49
1209.358;-59.41
1209.558;-59.39
1209.757;-59.33
1209.956;-59.24
1210.155;-59.17
1210.354;-59.13
1210.553;-59.09
1210.752;-59.0
1210.951;-58.92
1211.15;-58.89
1211.35;-58.85
1211.549;-58.83
1211.748;-58.75
1211.947;-58.7
1212.146;-58.69
1212.345;-58.65
1212.544;-58.62
1212.743;-58.57
1212.943;-58.58
1213.142;-58.57
1213.341;-58.53
1213.54;-58.53
1213.739;-58.53
1213.938;-58.55
1214.137;-58.52
1214.336;-58.48
1214.535;-58.51
1214.735;-58.51
1214.934;-58.48
1215.133;-58.44
1215.332;-58.46
1215.531;-58.47
1215.73;-58.42
1215.929;-58.36
1216.128;-58.34
1216.327;-58.3
1216.527;-58.28
1216.726;-58.2
1216.925;-58.16
1217.124;-58.15
1217.323;-58.1
1217.522;-58.04
1217.721;-57.98
1217.92;-57.96
1218.12;-57.94
1218.319;-57.86
1218.518;-57.85
1218.717;-57.83
1218.916;-57.81
1219.115;-57.75
1219.314;-57.71
1219.513;-57.72
1219.712;-57.69
1219.912;-57.64
1220.111;-57.6
1220.31;-57.58
1220.509;-57.57
1220.708;-57.51
1220.907;-57.44
1221.106;-57.39
1221.305;-57.36
1221.504;-57.29
1221.704;-57.2
1221.903;-57.15
1222.102;-57.1
1222.301;-57.02
1222.5;-56.93
1222.699;-56.87
1222.898;-56.82
1223.097;-56.73
1223.297;-56.64
1223.496;-56.58
1223.695;-56.53
1223.894;-56.46
1224.093;-56.39
1224.292;-56.33
1224.491;-56.31
1224.69;-56.25
1224.889;-56.19
1225.089;-56.18
1225.288;-56.15
1225.487;-56.11
1225.686;-56.07
1225.885;-56.05
1226.084;-56.05
1226.283;-56.02
1226.482;-56.0
1226.681;-55.98
1226.881;-55.97
1227.08;-55.95
1227.279;-55.9
1227.478;-55.89
1227.677;-55.87
1227.876;-55.84
1228.075;-55.8
1228.274;-55.76
1228.474;-55.73
1228.673;-55.68
1228.872;-55.65
1229.071;-55.59
1229.27;-55.57
1229.469;-55.53
1229.668;-55.47
1229.867;-55.44
1230.066;-55.4
1230.266;-55.33
1230.465;-55.29
1230.664;-55.24
1230.863;-55.22
1231.062;-55.16
1231.261;-55.11
1231.46;-55.09
1231.659;-55.03
1231.858;-54.98
1232.058;-54.92
1232.257;-54.86
1232.456;-54.81
1232.655;-54.72
1232.854;-54.66
1233.053;-54.58
1233.252;-54.49
1233.451;-54.4
1233.65;-54.32
1233.85;-54.24
1234.049;-54.14
1234.248;-54.02
1234.447;-53.93
1234.646;-53.82
1234.845;-53.72
1235.044;-53.6
1235.243;-53.5
1235.443;-53.38
1235.642;-53.25
1235.841;-53.14
1236.04;-53.02
1236.239;-52.9
1236.438;-52.77
1236.637;-52.66
1236.836;-52.55
1237.035;-52.43
1237.235;-52.3
1237.434;-52.18
1237.633;-52.07
1237.832;-51.98
1238.031;-51.85
1238.23;-51.76
1238.429;-51.66
1238.628;-51.56
1238.827;-51.47
1239.027;-51.38
1239.226;-51.3
1239.425;-51.2
1239.624;-51.13
1239.823;-51.06
1240.022;-50.98
1240.221;-50.9
1240.42;-50.81
1240.62;-50.74
1240.819;-50.67
1241.018;-50.56
1241.217;-50.48
1241.416;-50.39
1241.615;-50.27
1241.814;-50.18
1242.013;-50.06
1242.212;-49.95
1242.412;-49.82
1242.611;-49.68
1242.81;-49.56
1243.009;-49.4
1243.208;-49.26
1243.407;-49.09
1243.606;-48.93
1243.805;-48.78
1244.004;-48.59
1244.204;-48.43
1244.403;-48.25
1244.602;-48.06
1244.801;-47.89
1245.0;-47.71
1245.199;-47.54
1245.398;-47.34
1245.597;-47.14
1245.797;-46.97
1245.996;-46.76
1246.195;-46.58
1246.394;-46.38
1246.593;-46.17
1246.792;-45.98
1246.991;-45.74
1247.19;-45.59
1247.389;-45.4
1247.589;-45.2
1247.788;-45.01
1247.987;-44.81
1248.186;-44.64
1248.385;-44.46
1248.584;-44.29
1248.783;-44.13
1248.982;-43.97
1249.181;-43.84
1249.381;-43.7
1249.58;-43.58
1249.779;-43.45
1249.978;-43.34
1250.177;-43.26
1250.376;-43.16
1250.575;-43.09
1250.774;-43.02
1250.974;-42.97
1251.173;-42.93
1251.372;-42.89
1251.571;-42.88
1251.77;-42.85
1251.969;-42.84
1252.168;-42.85
1252.367;-42.85
1252.566;-42.89
1252.766;-42.92
1252.965;-42.98
1253.164;-43.05
1253.363;-43.12
1253.562;-43.24
1253.761;-43.33
1253.96;-43.46
1254.159;-43.6
1254.358;-43.74
1254.558;-43.91
1254.757;-44.05
1254.956;-44.2
1255.155;-44.35
1255.354;-44.46
1255.553;-44.57
1255.752;-44.61
1255.951;-44.62
1256.15;-44.58
1256.35;-44.47
1256.549;-44.34
1256.748;-44.11
1256.947;-43.85
1257.146;-43.55
1257.345;-43.2
1257.544;-42.85
1257.743;-42.45
1257.943;-42.03
1258.142;-41.61
1258.341;-41.16
1258.54;-40.75
1258.739;-40.29
1258.938;-39.86
1259.137;-39.42
1259.336;-38.99
1259.535;-38.58
1259.735;-38.15
1259.934;-37.74
1260.133;-37.35
1260.332;-36.96
1260.531;-36.61
1260.73;-36.24
1260.929;-35.84
1261.128;-35.56
1261.327;-35.26
1261.527;-34.97
1261.726;-34.69
1261.925;-34.45
1262.124;-34.2
1262.323;-33.98
1262.522;-33.77
1262.721;-33.57
1262.92;-33.41
1263.12;-33.24
1263.319;-33.1
1263.518;-32.98
1263.717;-32.87
1263.916;-32.78
1264.115;-32.69
1264.314;-32.64
1264.513;-32.6
1264.712;-32.57
1264.912;-32.57
1265.111;-32.57
1265.31;-32.61
1265.509;-32.66
1265.708;-32.72
1265.907;-32.81
1266.106;-32.9
1266.305;-33.03
1266.504;-33.16
1266.704;-33.31
1266.903;-33.47
1267.102;-33.63
1267.301;-33.82
1267.5;-33.99
1267.699;-34.17
1267.898;-34.33
1268.097;-34.48
1268.297;-34.62
1268.496;-34.71
1268.695;-34.76
1268.894;-34.77
1269.093;-34.71
1269.292;-34.61
1269.491;-34.44
1269.69;-34.21
1269.889;-33.92
1270.089;-33.56
1270.288;-33.18
1270.487;-32.74
1270.686;-32.27
1270.885;-31.78
1271.084;-31.27
1271.283;-30.77
1271.482;-30.25
1271.681;-29.74
1271.881;-29.24
1272.08;-28.76
1272.279;-28.32
1272.478;-27.87
1272.677;-27.46
1272.876;-27.05
1273.075;-26.66
1273.274;-26.3
1273.474;-25.89
1273.673;-25.63
1273.872;-25.32
1274.071;-25.03
1274.27;-24.74
1274.469;-24.47
1274.668;-24.23
1274.867;-23.98
1275.066;-23.77
1275.266;-23.54
1275.465;-23.34
1275.664;-23.16
1275.863;-22.98
1276.062;-22.83
1276.261;-22.67
1276.46;-22.54
1276.659;-22.4
1276.858;-22.29
1277.058;-22.21
1277.257;-22.12
1277.456;-22.05
1277.655;-22.0
1277.854;-21.96
1278.053;-21.95
1278.252;-21.93
1278.451;-21.94
1278.65;-21.95
1278.85;-21.98
1279.049;-22.04
1279.248;-22.08
1279.447;-22.17
1279.646;-22.24
1279.845;-22.34
1280.044;-22.47
1280.243;-22.59
1280.443;-22.74
1280.642;-22.89
1280.841;-23.06
1281.04;-23.26
1281.239;-23.46
1281.438;-23.69
1281.637;-23.91
1281.836;-24.16
1282.035;-24.42
1282.235;-24.68
1282.434;-24.96
1282.633;-25.23
1282.832;-25.5
1283.031;-25.76
1283.23;-25.98
1283.429;-26.18
1283.628;-26.32
1283.827;-26.42
1284.027;-26.45
1284.226;-26.41
1284.425;-26.32
1284.624;-26.14
1284.823;-25.9
1285.022;-25.61
1285.221;-25.27
1285.42;-24.91
1285.62;-24.51
1285.819;-24.11
1286.018;-23.68
1286.217;-23.25
1286.416;-22.84
1286.615;-22.42
1286.814;-22.01
1287.013;-21.6
1287.212;-21.21
1287.412;-20.84
1287.611;-20.48
1287.81;-20.15
1288.009;-19.81
1288.208;-19.5
1288.407;-19.2
1288.606;-18.92
1288.805;-18.67
1289.004;-18.4
1289.204;-18.17
1289.403;-17.95
1289.602;-17.74
1289.801;-17.57
1290.0;-17.37
1290.199;-17.21
1290.398;-17.05
1290.597;-16.91
1290.797;-16.79
1290.996;-16.65
1291.195;-16.54
1291.394;-16.43
1291.593;-16.33
1291.792;-16.25
1291.991;-16.16
1292.19;-16.11
1292.389;-16.05
1292.589;-16.0
1292.788;-15.94
1292.987;-15.91
1293.186;-15.88
1293.385;-15.86
1293.584;-15.84
1293.783;-15.81
1293.982;-15.81
1294.181;-15.8
1294.381;-15.8
1294.58;-15.81
1294.779;-15.8
1294.978;-15.81
1295.177;-15.81
1295.376;-15.81
1295.575;-15.82
1295.774;-15.81
1295.974;-15.81
1296.173;-15.8
1296.372;-15.8
1296.571;-15.79
1296.77;-15.77
1296.969;-15.77
1297.168;-15.75
1297.367;-15.73
1297.566;-15.7
1297.766;-15.67
1297.965;-15.66
1298.164;-15.62
1298.363;-15.6
1298.562;-15.55
1298.761;-15.53
1298.96;-15.5
1299.159;-15.47
1299.358;-15.44
1299.558;-15.4
1299.757;-15.37
1299.956;-15.36
1300.155;-15.34
1300.354;-15.33
1300.553;-15.3
1300.752;-15.29
1300.951;-15.29
1301.15;-15.3
1301.35;-15.31
1301.549;-15.33
1301.748;-15.35
1301.947;-15.39
1302.146;-15.43
1302.345;-15.5
1302.544;-15.55
1302.743;-15.63
1302.943;-15.7
1303.142;-15.81
1303.341;-15.93
1303.54;-16.06
1303.739;-16.2
1303.938;-16.35
1304.137;-16.52
1304.336;-16.71
1304.535;-16.92
1304.735;-17.15
1304.934;-17.39
1305.133;-17.66
1305.332;-17.94
1305.531;-18.32
1305.73;-18.59
1305.929;-18.94
1306.128;-19.35
1306.327;-19.76
1306.527;-20.23
1306.726;-20.72
1306.925;-21.25
1307.124;-21.85
1307.323;-22.48
1307.522;-23.19
1307.721;-23.95
1307.92;-24.79
1308.12;-25.72
1308.319;-26.71
1308.518;-27.79
1308.717;-29.17
1308.916;-30.07
1309.115;-31.05
1309.314;-31.71
1309.513;-31.86
1309.712;-31.42
1309.912;-30.58
1310.111;-29.52
1310.31;-28.41
1310.509;-27.35
1310.708;-26.33
1310.907;-25.24
1311.106;-24.55
1311.305;-23.79
1311.504;-23.08
1311.704;-22.44
1311.903;-21.84
1312.102;-21.29
1312.301;-20.81
1312.5;-20.36
1312.699;-19.96
1312.898;-19.56
1313.097;-19.21
1313.297;-18.9
1313.496;-18.62
1313.695;-18.37
1313.894;-18.12
1314.093;-17.91
1314.292;-17.71
1314.491;-17.54
1314.69;-17.4
1314.889;-17.25
1315.089;-17.13
1315.288;-17.02
1315.487;-16.93
1315.686;-16.87
1315.885;-16.8
1316.084;-16.76
1316.283;-16.72
1316.482;-16.71
1316.681;-16.71
1316.881;-16.71
1317.08;-16.75
1317.279;-16.77
1317.478;-16.83
1317.677;-16.87
1317.876;-16.93
1318.075;-17.02
1318.274;-17.09
1318.474;-17.19
1318.673;-17.29
1318.872;-17.39
1319.071;-17.51
1319.27;-17.62
1319.469;-17.76
1319.668;-17.88
1319.867;-18.01
1320.066;-18.14
1320.266;-18.28
1320.465;-18.43
1320.664;-18.56
1320.863;-18.7
1321.062;-18.83
1321.261;-18.97
1321.46;-19.11
1321.659;-19.23
1321.858;-19.36
1322.058;-19.48
1322.257;-19.59
1322.456;-19.7
1322.655;-19.8
1322.854;-19.91
1323.053;-20.0
1323.252;-20.09
1323.451;-20.17
1323.65;-20.24
1323.85;-20.33
1324.049;-20.39
1324.248;-20.47
1324.447;-20.53
1324.646;-20.59
1324.845;-20.66
1325.044;-20.71
1325.243;-20.79
1325.443;-20.85
1325.642;-20.93
1325.841;-21.0
1326.04;-21.07
1326.239;-21.17
1326.438;-21.25
1326.637;-21.34
1326.836;-21.44
1327.035;-21.55
1327.235;-21.67
1327.434;-21.79
1327.633;-21.93
1327.832;-22.06
1328.031;-22.21
1328.23;-22.38
1328.429;-22.55
1328.628;-22.74
1328.827;-22.92
1329.027;-23.13
1329.226;-23.35
1329.425;-23.58
1329.624;-23.82
1329.823;-24.06
1330.022;-24.34
1330.221;-24.61
1330.42;-24.9
1330.62;-25.21
1330.819;-25.53
1331.018;-25.88
1331.217;-26.23
1331.416;-26.59
1331.615;-26.98
1331.814;-27.37
1332.013;-27.8
1332.212;-28.22
1332.412;-28.76
1332.611;-29.14
1332.81;-29.62
1333.009;-30.09
1333.208;-30.59
1333.407;-31.09
1333.606;-31.58
1333.805;-32.09
1334.004;-32.57
1334.204;-33.05
1334.403;-33.5
1334.602;-33.91
1334.801;-34.29
1335.0;-34.61
1335.199;-34.88
1335.398;-35.07
1335.597;-35.21
1335.797;-35.3
1335.996;-35.32
1336.195;-35.31
1336.394;-35.23
1336.593;-35.14
1336.792;-35.0
1336.991;-34.86
1337.19;-34.73
1337.389;-34.59
1337.589;-34.46
1337.788;-34.31
1337.987;-34.19
1338.186;-34.08
1338.385;-33.98
1338.584;-33.91
1338.783;-33.84
1338.982;-33.8
1339.181;-33.77
1339.381;-33.75
1339.58;-33.76
1339.779;-33.77
1339.978;-33.83
1340.177;-33.88
1340.376;-33.97
1340.575;-34.07
1340.774;-34.17
1340.974;-34.31
1341.173;-34.44
1341.372;-34.61
1341.571;-34.79
1341.77;-34.99
1341.969;-35.22
1342.168;-35.44
1342.367;-35.71
1342.566;-35.98
1342.766;-36.27
1342.965;-36.58
1343.164;-36.92
1343.363;-37.29
1343.562;-37.66
1343.761;-38.08
1343.96;-38.6
1344.159;-38.98
1344.358;-39.46
1344.558;-39.98
1344.757;-40.54
1344.956;-41.11
1345.155;-41.74
1345.354;-42.39
1345.553;-43.08
1345.752;-43.82
1345.951;-44.62
1346.15;-45.49
1346.35;-46.4
1346.549;-47.41
1346.748;-48.68
1346.947;-49.6
1347.146;-50.76
1347.345;-51.95
1347.544;-53.13
1347.743;-54.14
1347.943;-54.8
1348.142;-54.94
1348.341;-54.63
1348.54;-53.96
1348.739;-53.14
1348.938;-52.28
1349.137;-51.42
1349.336;-50.62
1349.535;-49.9
1349.735;-49.25
1349.934;-48.7
1350.133;-48.21
1350.332;-47.83
1350.531;-47.44
1350.73;-47.06
1350.929;-46.72
1351.128;-46.38
1351.327;-46.09
1351.527;-45.92
1351.726;-45.8
1351.925;-45.65
1352.124;-45.52
1352.323;-45.41
1352.522;-45.38
1352.721;-45.31
1352.92;-45.26
1353.12;-45.34
1353.319;-45.29
1353.518;-45.31
1353.717;-45.36
1353.916;-45.37
1354.115;-45.44
1354.314;-45.57
1354.513;-45.72
1354.712;-45.99
1354.912;-46.24
1355.111;-46.45
1355.31;-46.59
1355.509;-46.67
1355.708;-46.93
1355.907;-47.28
1356.106;-47.55
1356.305;-47.78
1356.504;-48.04
1356.704;-48.1
1356.903;-48.4
1357.102;-49.05
1357.301;-49.4
1357.5;-49.83
1357.699;-50.26
1357.898;-50.67
1358.097;-51.01
1358.297;-51.52
1358.496;-52.13
1358.695;-52.67
1358.894;-53.28
1359.093;-53.91
1359.292;-54.45
1359.491;-55.25
1359.69;-56.11
1359.889;-56.93
1360.089;-57.63
1360.288;-58.27
1360.487;-58.89
1360.686;-59.4
1360.885;-60.08
1361.084;-60.62
1361.283;-60.85
1361.482;-60.83
1361.681;-60.75
1361.881;-60.4
1362.08;-60.07
1362.279;-59.8
1362.478;-59.52
1362.677;-58.91
1362.876;-58.15
1363.075;-57.48
1363.274;-56.72
1363.474;-56.19
1363.673;-55.85
1363.872;-55.52
1364.071;-55.27
1364.27;-55.08
1364.469;-54.95
1364.668;-55.14
1364.867;-55.03
1365.066;-54.7
1365.266;-54.55
1365.465;-54.27
1365.664;-54.11
1365.863;-53.91
1366.062;-53.73
1366.261;-53.57
1366.46;-53.47
1366.659;-53.49
1366.858;-53.59
1367.058;-53.63
1367.257;-53.64
1367.456;-53.79
1367.655;-53.92
1367.854;-54.14
1368.053;-54.23
1368.252;-54.21
1368.451;-54.49
1368.65;-54.59
1368.85;-54.72
1369.049;-54.73
1369.248;-54.76
1369.447;-54.71
1369.646;-54.85
1369.845;-55.2
1370.044;-55.48
1370.243;-55.69
1370.443;-55.82
1370.642;-55.95
1370.841;-56.29
1371.04;-56.66
1371.239;-56.95
1371.438;-57.07
1371.637;-57.18
1371.836;-57.22
1372.035;-57.48
1372.235;-57.79
1372.434;-57.98
1372.633;-58.13
1372.832;-58.26
1373.031;-58.35
1373.23;-58.56
1373.429;-58.71
1373.628;-58.86
1373.827;-58.95
1374.027;-59.07
1374.226;-59.13
1374.425;-59.25
1374.624;-59.33
1374.823;-59.45
1375.022;-59.57
1375.221;-59.57
1375.42;-59.58
1375.62;-59.56
1375.819;-59.56
1376.018;-59.62
1376.217;-59.66
1376.416;-59.64
1376.615;-59.65
1376.814;-59.68
1377.013;-59.83
1377.212;-59.89
1377.412;-59.88
1377.611;-59.88
1377.81;-59.76
1378.009;-59.76
1378.208;-59.81
1378.407;-59.89
1378.606;-60.08
1378.805;-60.34
1379.004;-60.46
1379.204;-60.53
1379.403;-60.5
1379.602;-60.48
1379.801;-60.53
1380.0;-60.72
1380.199;-60.94
1380.398;-61.14
1380.597;-61.72
1380.797;-62.26
1380.996;-62.56
1381.195;-62.77
1381.394;-62.68
1381.593;-62.53
1381.792;-62.71
1381.991;-62.91
1382.19;-63.22
1382.389;-63.69
1382.589;-64.4
1382.788;-65.14
1382.987;-65.67
1383.186;-65.87
1383.385;-65.92
1383.584;-66.1
1383.783;-66.44
1383.982;-66.87
1384.181;-67.33
1384.381;-67.71
1384.58;-68.08
1384.779;-68.6
1384.978;-69.21
1385.177;-69.82
1385.376;-70.31
1385.575;-70.59
1385.774;-71.01
1385.974;-71.31
1386.173;-71.44
1386.372;-71.63
1386.571;-71.47
1386.77;-71.49
1386.969;-71.34
1387.168;-70.96
1387.367;-70.84
1387.566;-70.52
1387.766;-70.13
1387.965;-70.18
1388.164;-70.16
1388.363;-69.85
1388.562;-69.4
1388.761;-69.05
1388.96;-68.48
1389.159;-68.16
1389.358;-67.91
1389.558;-67.65
1389.757;-67.48
1389.956;-67.35
1390.155;-67.14
1390.354;-66.98
1390.553;-66.74
1390.752;-66.61
1390.951;-66.52
1391.15;-66.41
1391.35;-66.32
1391.549;-66.25
1391.748;-66.16
1391.947;-66.1
1392.146;-66.24
1392.345;-66.41
1392.544;-66.73
1392.743;-66.89
1392.943;-66.87
1393.142;-66.73
1393.341;-66.57
1393.54;-66.48
1393.739;-66.57
1393.938;-66.7
1394.137;-66.86
1394.336;-66.93
1394.535;-67.19
1394.735;-67.34
1394.934;-67.68
1395.133;-68.13
1395.332;-68.5
1395.531;-68.67
1395.73;-69.04
1395.929;-69.15
1396.128;-69.36
1396.327;-69.78
1396.527;-70.28
1396.726;-70.6
1396.925;-70.87
1397.124;-71.21
1397.323;-71.6
1397.522;-71.69
1397.721;-72.01
1397.92;-72.88
1398.12;-73.04
1398.319;-73.37
1398.518;-73.71
1398.717;-74.56
1398.916;-74.66
1399.115;-75.0
1399.314;-75.62
1399.513;-75.84
1399.712;-76.15
1399.912;-76.85
1400.111;-76.46
1400.31;-76.27
1400.509;-76.71
1400.708;-77.75
1400.907;-76.67
1401.106;-77.26
1401.305;-76.43
1401.504;-75.87
1401.704;-75.41
1401.903;-75.29
1402.102;-74.86
1402.301;-74.86
1402.5;-74.09
1402.699;-74.09
1402.898;-73.85
1403.097;-74.14
1403.297;-73.59
1403.496;-73.26
1403.695;-73.32
1403.894;-72.98
1404.093;-73.26
1404.292;-73.09
1404.491;-72.89
1404.69;-73.16
1404.889;-73.7
1405.089;-73.82
1405.288;-73.49
1405.487;-73.34
1405.686;-73.13
1405.885;-72.92
1406.084;-73.14
1406.283;-73.19
1406.482;-73.3
1406.681;-73.5
1406.881;-73.42
1407.08;-73.67
1407.279;-73.69
1407.478;-73.81
1407.677;-73.91
1407.876;-73.9
1408.075;-74.08
1408.274;-74.17
1408.474;-75.06
1408.673;-74.87
1408.872;-74.97
1409.071;-74.97
1409.27;-74.97
1409.469;-75.29
1409.668;-75.4
1409.867;-75.69
1410.066;-75.86
1410.266;-75.65
1410.465;-75.7
1410.664;-76.03
1410.863;-75.88
1411.062;-76.34
1411.261;-76.68
1411.46;-75.8
1411.659;-76.06
1411.858;-75.51
1412.058;-76.42
1412.257;-76.49
1412.456;-77.07
1412.655;-76.31
1412.854;-75.88
1413.053;-76.63
1413.252;-76.37
1413.451;-76.04
1413.65;-76.13
1413.85;-76.32
1414.049;-75.95
1414.248;-75.71
1414.447;-76.52
1414.646;-75.89
1414.845;-76.25
1415.044;-76.52
1415.243;-76.78
1415.443;-76.29
1415.642;-76.07
1415.841;-76.33
1416.04;-76.69
1416.239;-75.69
1416.438;-76.73
1416.637;-76.6
1416.836;-75.49
1417.035;-76.29
1417.235;-76.21
1417.434;-76.13
1417.633;-76.94
1417.832;-76.91
1418.031;-76.52
1418.23;-76.16
1418.429;-76.83
1418.628;-76.32
1418.827;-76.13
1419.027;-76.89
1419.226;-77.28
1419.425;-76.73
1419.624;-77.42
1419.823;-77.34
1420.022;-76.8
1420.221;-76.69
1420.42;-77.93
1420.62;-77.19
1420.819;-77.34
1421.018;-77.19
1421.217;-77.77
1421.416;-78.1
1421.615;-78.03
1421.814;-77.37
1422.013;-77.47
1422.212;-77.78
1422.412;-77.58
1422.611;-77.71
1422.81;-77.78
1423.009;-77.89
1423.208;-77.17
1423.407;-77.66
1423.606;-77.43
1423.805;-77.6
1424.004;-77.39
1424.204;-76.92
1424.403;-77.69
1424.602;-77.58
1424.801;-77.39
1425.0;-77.09
