Wavelength (nm);Intensity (dBm)
1131.0;1131.0
1200.0;-61.17
1200.199;-61.11
1200.398;-61.09
1200.597;-61.09
1200.797;-61.06
1200.996;-61.03
1201.195;-60.98
1201.394;-60.96
1201.593;-60.9
1201.792;-60.85
1201.991;-60.81
1202.19;-60.75
1202.389;-60.64
1202.589;-60.61
1202.788;-60.6
1202.987;-60.54
1203.186;-60.44
1203.385;-60.4
1203.584;-60.41
1203.783;-60.39
1203.982;-60.3
1204.181;-60.26
1204.381;-60.29
1204.58;-60.27
1204.779;-60.19
1204.978;-60.19
1205.177;-60.18
1205.376;-60.16
1205.575;-60.13
1205.774;-60.11
1205.974;-60.08
1206.173;-60.06
1206.372;-60.06
1206.571;-60.01
1206.77;-59.94
1206.969;-59.93
1207.168;-59.94
1207.367;-59.88
1207.566;-59.82
1207.766;-59.78
1207.965;-59.81
1208.164;-59.75
1208.363;-59.68
1208.562;-59.65
1208.761;-59.63
1208.96;-59.6
1209.159;-59.53
1209.358;-59.46
1209.558;-59.46
1209.757;-59.44
1209.956;-59.35
1210.155;-59.29
1210.354;-59.28
1210.553;-59.27
1210.752;-59.19
1210.951;-59.14
1211.15;-59.12
1211.35;-59.11
1211.549;-59.06
1211.748;-59.01
1211.947;-58.99
1212.146;-59.0
1212.345;-58.99
1212.544;-58.94
1212.743;-58.92
1212.943;-58.93
1213.142;-58.94
1213.341;-58.91
1213.54;-58.89
1213.739;-58.91
1213.938;-58.95
1214.137;-58.9
1214.336;-58.89
1214.535;-58.93
1214.735;-58.94
1214.934;-58.91
1215.133;-58.86
1215.332;-58.87
1215.531;-58.87
1215.73;-58.8
1215.929;-58.75
1216.128;-58.69
1216.327;-58.67
1216.527;-58.62
1216.726;-58.53
1216.925;-58.46
1217.124;-58.4
1217.323;-58.37
1217.522;-58.26
1217.721;-58.19
1217.92;-58.14
1218.12;-58.09
1218.319;-58.02
1218.518;-57.93
1218.717;-57.9
1218.916;-57.85
1219.115;-57.75
1219.314;-57.7
1219.513;-57.68
1219.712;-57.63
1219.912;-57.54
1220.111;-57.47
1220.31;-57.43
1220.509;-57.38
1220.708;-57.28
1220.907;-57.21
1221.106;-57.13
1221.305;-57.08
1221.504;-56.97
1221.704;-56.88
1221.903;-56.8
1222.102;-56.72
1222.301;-56.63
1222.5;-56.5
1222.699;-56.44
1222.898;-56.37
1223.097;-56.27
1223.297;-56.18
1223.496;-56.09
1223.695;-56.04
1223.894;-55.96
1224.093;-55.85
1224.292;-55.81
1224.491;-55.76
1224.69;-55.72
1224.889;-55.64
1225.089;-55.62
1225.288;-55.6
1225.487;-55.54
1225.686;-55.52
1225.885;-55.51
1226.084;-55.49
1226.283;-55.47
1226.482;-55.44
1226.681;-55.45
1226.881;-55.45
1227.08;-55.41
1227.279;-55.39
1227.478;-55.37
1227.677;-55.37
1227.876;-55.33
1228.075;-55.29
1228.274;-55.29
1228.474;-55.26
1228.673;-55.25
1228.872;-55.21
1229.071;-55.17
1229.27;-55.17
1229.469;-55.12
1229.668;-55.1
1229.867;-55.09
1230.066;-55.08
1230.266;-55.06
1230.465;-55.02
1230.664;-55.02
1230.863;-55.02
1231.062;-55.01
1231.261;-55.02
1231.46;-55.02
1231.659;-55.02
1231.858;-54.99
1232.058;-54.97
1232.257;-54.98
1232.456;-54.96
1232.655;-54.93
1232.854;-54.89
1233.053;-54.86
1233.252;-54.82
1233.451;-54.76
1233.65;-54.72
1233.85;-54.66
1234.049;-54.59
1234.248;-54.51
1234.447;-54.43
1234.646;-54.36
1234.845;-54.27
1235.044;-54.17
1235.243;-54.09
1235.443;-53.98
1235.642;-53.89
1235.841;-53.76
1236.04;-53.67
1236.239;-53.56
1236.438;-53.43
1236.637;-53.33
1236.836;-53.2
1237.035;-53.09
1237.235;-52.97
1237.434;-52.84
1237.633;-52.74
1237.832;-52.62
1238.031;-52.49
1238.23;-52.39
1238.429;-52.27
1238.628;-52.16
1238.827;-52.03
1239.027;-51.93
1239.226;-51.83
1239.425;-51.71
1239.624;-51.61
1239.823;-51.49
1240.022;-51.39
1240.221;-51.28
1240.42;-51.16
1240.62;-51.07
1240.819;-50.94
1241.018;-50.81
1241.217;-50.68
1241.416;-50.54
1241.615;-50.4
1241.814;-50.25
1242.013;-50.1
1242.212;-49.94
1242.412;-49.77
1242.611;-49.6
1242.81;-49.42
1243.009;-49.24
1243.208;-49.06
1243.407;-48.88
1243.606;-48.7
1243.805;-48.5
1244.004;-48.31
1244.204;-48.13
1244.403;-47.94
1244.602;-47.76
1244.801;-47.57
1245.0;-47.39
1245.199;-47.21
1245.398;-47.03
1245.597;-46.85
1245.797;-46.66
1245.996;-46.47
1246.195;-46.28
1246.394;-46.1
1246.593;-45.91
1246.792;-45.69
1246.991;-45.53
1247.19;-45.35
1247.389;-45.17
1247.589;-44.97
1247.788;-44.79
1247.987;-44.62
1248.186;-44.44
1248.385;-44.28
1248.584;-44.11
1248.783;-43.96
1248.982;-43.82
1249.181;-43.67
1249.381;-43.54
1249.58;-43.4
1249.779;-43.28
1249.978;-43.17
1250.177;-43.05
1250.376;-42.96
1250.575;-42.84
1250.774;-42.75
1250.974;-42.68
1251.173;-42.59
1251.372;-42.51
1251.571;-42.44
1251.77;-42.36
1251.969;-42.3
1252.168;-42.22
1252.367;-42.17
1252.566;-42.11
1252.766;-42.05
1252.965;-42.02
1253.164;-41.97
1253.363;-41.93
1253.562;-41.89
1253.761;-41.84
1253.96;-41.81
1254.159;-41.74
1254.358;-41.69
1254.558;-41.61
1254.757;-41.51
1254.956;-41.39
1255.155;-41.25
1255.354;-41.1
1255.553;-40.92
1255.752;-40.72
1255.951;-40.49
1256.15;-40.25
1256.35;-40.0
1256.549;-39.73
1256.748;-39.46
1256.947;-39.18
1257.146;-38.88
1257.345;-38.58
1257.544;-38.27
1257.743;-37.97
1257.943;-37.66
1258.142;-37.37
1258.341;-37.09
1258.54;-36.78
1258.739;-36.46
1258.938;-36.12
1259.137;-35.77
1259.336;-35.52
1259.535;-35.22
1259.735;-34.91
1259.934;-34.58
1260.133;-34.28
1260.332;-33.98
1260.531;-33.71
1260.73;-33.45
1260.929;-33.18
1261.128;-32.93
1261.327;-32.66
1261.527;-32.43
1261.726;-32.2
1261.925;-31.99
1262.124;-31.79
1262.323;-31.59
1262.522;-31.41
1262.721;-31.24
1262.92;-31.06
1263.12;-30.92
1263.319;-30.77
1263.518;-30.65
1263.717;-30.53
1263.916;-30.4
1264.115;-30.3
1264.314;-30.18
1264.513;-30.11
1264.712;-30.03
1264.912;-29.96
1265.111;-29.9
1265.31;-29.83
1265.509;-29.79
1265.708;-29.75
1265.907;-29.72
1266.106;-29.7
1266.305;-29.66
1266.504;-29.65
1266.704;-29.62
1266.903;-29.6
1267.102;-29.59
1267.301;-29.56
1267.5;-29.55
1267.699;-29.52
1267.898;-29.47
1268.097;-29.45
1268.297;-29.39
1268.496;-29.36
1268.695;-29.3
1268.894;-29.23
1269.093;-29.15
1269.292;-29.04
1269.491;-28.94
1269.69;-28.81
1269.889;-28.67
1270.089;-28.54
1270.288;-28.36
1270.487;-28.19
1270.686;-27.98
1270.885;-27.76
1271.084;-27.55
1271.283;-27.31
1271.482;-27.07
1271.681;-26.81
1271.881;-26.55
1272.08;-26.3
1272.279;-26.0
1272.478;-25.8
1272.677;-25.54
1272.876;-25.31
1273.075;-25.07
1273.274;-24.85
1273.474;-24.64
1273.673;-24.43
1273.872;-24.23
1274.071;-24.02
1274.27;-23.83
1274.469;-23.65
1274.668;-23.47
1274.867;-23.31
1275.066;-23.14
1275.266;-22.99
1275.465;-22.84
1275.664;-22.69
1275.863;-22.57
1276.062;-22.43
1276.261;-22.31
1276.46;-22.2
1276.659;-22.09
1276.858;-22.01
1277.058;-21.91
1277.257;-21.84
1277.456;-21.78
1277.655;-21.73
1277.854;-21.71
1278.053;-21.67
1278.252;-21.64
1278.451;-21.6
1278.65;-21.59
1278.85;-21.6
1279.049;-21.6
1279.248;-21.63
1279.447;-21.64
1279.646;-21.66
1279.845;-21.68
1280.044;-21.69
1280.243;-21.73
1280.443;-21.76
1280.642;-21.8
1280.841;-21.84
1281.04;-21.88
1281.239;-21.93
1281.438;-21.95
1281.637;-21.98
1281.836;-22.0
1282.035;-22.01
1282.235;-22.04
1282.434;-22.03
1282.633;-22.03
1282.832;-22.01
1283.031;-21.98
1283.23;-21.93
1283.429;-21.84
1283.628;-21.76
1283.827;-21.64
1284.027;-21.53
1284.226;-21.41
1284.425;-21.27
1284.624;-21.12
1284.823;-20.95
1285.022;-20.76
1285.221;-20.56
1285.42;-20.34
1285.62;-20.15
1285.819;-19.95
1286.018;-19.78
1286.217;-19.59
1286.416;-19.38
1286.615;-19.17
1286.814;-18.93
1287.013;-18.73
1287.212;-18.54
1287.412;-18.36
1287.611;-18.2
1287.81;-18.01
1288.009;-17.83
1288.208;-17.65
1288.407;-17.48
1288.606;-17.36
1288.805;-17.23
1289.004;-17.12
1289.204;-17.0
1289.403;-16.89
1289.602;-16.8
1289.801;-16.7
1290.0;-16.62
1290.199;-16.54
1290.398;-16.48
1290.597;-16.44
1290.797;-16.4
1290.996;-16.36
1291.195;-16.33
1291.394;-16.31
1291.593;-16.29
1291.792;-16.29
1291.991;-16.31
1292.19;-16.31
1292.389;-16.34
1292.589;-16.36
1292.788;-16.4
1292.987;-16.46
1293.186;-16.5
1293.385;-16.56
1293.584;-16.61
1293.783;-16.68
1293.982;-16.77
1294.181;-16.84
1294.381;-16.93
1294.58;-17.0
1294.779;-17.08
1294.978;-17.17
1295.177;-17.24
1295.376;-17.33
1295.575;-17.38
1295.774;-17.45
1295.974;-17.51
1296.173;-17.57
1296.372;-17.64
1296.571;-17.66
1296.77;-17.68
1296.969;-17.67
1297.168;-17.68
1297.367;-17.71
1297.566;-17.72
1297.766;-17.74
1297.965;-17.7
1298.164;-17.65
1298.363;-17.59
1298.562;-17.52
1298.761;-17.48
1298.96;-17.43
1299.159;-17.38
1299.358;-17.31
1299.558;-17.24
1299.757;-17.21
1299.956;-17.15
1300.155;-17.1
1300.354;-17.01
1300.553;-16.93
1300.752;-16.89
1300.951;-16.88
1301.15;-16.9
1301.35;-16.87
1301.549;-16.84
1301.748;-16.78
1301.947;-16.73
1302.146;-16.74
1302.345;-16.76
1302.544;-16.84
1302.743;-16.9
1302.943;-16.96
1303.142;-17.01
1303.341;-17.05
1303.54;-17.14
1303.739;-17.23
1303.938;-17.37
1304.137;-17.52
1304.336;-17.66
1304.535;-17.82
1304.735;-17.97
1304.934;-18.16
1305.133;-18.36
1305.332;-18.58
1305.531;-18.82
1305.73;-19.05
1305.929;-19.3
1306.128;-19.55
1306.327;-19.83
1306.527;-20.13
1306.726;-20.42
1306.925;-20.74
1307.124;-21.05
1307.323;-21.37
1307.522;-21.68
1307.721;-21.97
1307.92;-22.24
1308.12;-22.49
1308.319;-22.71
1308.518;-22.9
1308.717;-23.04
1308.916;-23.1
1309.115;-23.08
1309.314;-23.0
1309.513;-22.86
1309.712;-22.72
1309.912;-22.53
1310.111;-22.32
1310.31;-22.06
1310.509;-21.75
1310.708;-21.43
1310.907;-21.11
1311.106;-20.81
1311.305;-20.53
1311.504;-20.24
1311.704;-19.95
1311.903;-19.65
1312.102;-19.37
1312.301;-19.12
1312.5;-18.89
1312.699;-18.68
1312.898;-18.46
1313.097;-18.27
1313.297;-18.07
1313.496;-17.92
1313.695;-17.78
1313.894;-17.65
1314.093;-17.55
1314.292;-17.44
1314.491;-17.37
1314.69;-17.28
1314.889;-17.22
1315.089;-17.18
1315.288;-17.14
1315.487;-17.15
1315.686;-17.13
1315.885;-17.14
1316.084;-17.16
1316.283;-17.19
1316.482;-17.25
1316.681;-17.31
1316.881;-17.39
1317.08;-17.47
1317.279;-17.57
1317.478;-17.7
1317.677;-17.81
1317.876;-17.95
1318.075;-18.08
1318.274;-18.24
1318.474;-18.4
1318.673;-18.57
1318.872;-18.76
1319.071;-18.94
1319.27;-19.14
1319.469;-19.33
1319.668;-19.54
1319.867;-19.74
1320.066;-19.95
1320.266;-20.17
1320.465;-20.36
1320.664;-20.58
1320.863;-20.77
1321.062;-20.96
1321.261;-21.15
1321.46;-21.32
1321.659;-21.49
1321.858;-21.63
1322.058;-21.77
1322.257;-21.87
1322.456;-21.98
1322.655;-22.07
1322.854;-22.13
1323.053;-22.2
1323.252;-22.22
1323.451;-22.25
1323.65;-22.26
1323.85;-22.26
1324.049;-22.27
1324.248;-22.25
1324.447;-22.25
1324.646;-22.22
1324.845;-22.2
1325.044;-22.18
1325.243;-22.16
1325.443;-22.16
1325.642;-22.14
1325.841;-22.14
1326.04;-22.14
1326.239;-22.15
1326.438;-22.17
1326.637;-22.19
1326.836;-22.24
1327.035;-22.28
1327.235;-22.34
1327.434;-22.4
1327.633;-22.48
1327.832;-22.58
1328.031;-22.67
1328.23;-22.8
1328.429;-22.92
1328.628;-23.06
1328.827;-23.22
1329.027;-23.38
1329.226;-23.57
1329.425;-23.76
1329.624;-23.98
1329.823;-24.19
1330.022;-24.43
1330.221;-24.68
1330.42;-24.92
1330.62;-25.19
1330.819;-25.49
1331.018;-25.83
1331.217;-26.18
1331.416;-26.55
1331.615;-26.92
1331.814;-27.28
1332.013;-27.69
1332.212;-28.12
1332.412;-28.71
1332.611;-29.1
1332.81;-29.61
1333.009;-30.15
1333.208;-30.72
1333.407;-31.34
1333.606;-31.97
1333.805;-32.64
1334.004;-33.32
1334.204;-34.06
1334.403;-34.85
1334.602;-35.71
1334.801;-36.62
1335.0;-37.58
1335.199;-38.68
1335.398;-39.48
1335.597;-40.51
1335.797;-41.52
1335.996;-42.43
1336.195;-43.17
1336.394;-43.62
1336.593;-43.78
1336.792;-43.64
1336.991;-43.28
1337.19;-42.77
1337.389;-42.19
1337.589;-41.61
1337.788;-41.06
1337.987;-40.55
1338.186;-40.08
1338.385;-39.63
1338.584;-39.24
1338.783;-38.88
1338.982;-38.6
1339.181;-38.36
1339.381;-38.15
1339.58;-37.98
1339.779;-37.82
1339.978;-37.72
1340.177;-37.63
1340.376;-37.6
1340.575;-37.6
1340.774;-37.6
1340.974;-37.64
1341.173;-37.69
1341.372;-37.78
1341.571;-37.88
1341.77;-38.02
1341.969;-38.18
1342.168;-38.35
1342.367;-38.55
1342.566;-38.76
1342.766;-39.02
1342.965;-39.29
1343.164;-39.58
1343.363;-39.9
1343.562;-40.21
1343.761;-40.57
1343.96;-40.95
1344.159;-41.37
1344.358;-41.81
1344.558;-42.26
1344.757;-42.73
1344.956;-43.19
1345.155;-43.68
1345.354;-44.19
1345.553;-44.71
1345.752;-45.25
1345.951;-45.76
1346.15;-46.26
1346.35;-46.73
1346.549;-47.17
1346.748;-47.55
1346.947;-47.84
1347.146;-48.07
1347.345;-48.17
1347.544;-48.24
1347.743;-48.26
1347.943;-48.15
1348.142;-47.98
1348.341;-47.74
1348.54;-47.44
1348.739;-47.16
1348.938;-46.85
1349.137;-46.58
1349.336;-46.27
1349.535;-46.0
1349.735;-45.72
1349.934;-45.48
1350.133;-45.28
1350.332;-45.14
1350.531;-44.99
1350.73;-44.81
1350.929;-44.62
1351.128;-44.45
1351.327;-44.3
1351.527;-44.22
1351.726;-44.17
1351.925;-44.12
1352.124;-44.06
1352.323;-44.01
1352.522;-44.05
1352.721;-44.02
1352.92;-44.03
1353.12;-44.12
1353.319;-44.11
1353.518;-44.14
1353.717;-44.22
1353.916;-44.25
1354.115;-44.31
1354.314;-44.48
1354.513;-44.6
1354.712;-44.88
1354.912;-45.12
1355.111;-45.31
1355.31;-45.45
1355.509;-45.49
1355.708;-45.75
1355.907;-46.06
1356.106;-46.29
1356.305;-46.47
1356.504;-46.67
1356.704;-46.69
1356.903;-46.92
1357.102;-47.39
1357.301;-47.76
1357.5;-48.1
1357.699;-48.5
1357.898;-48.71
1358.097;-48.94
1358.297;-49.3
1358.496;-49.77
1358.695;-50.11
1358.894;-50.52
1359.093;-50.91
1359.292;-51.19
1359.491;-51.76
1359.69;-52.3
1359.889;-52.77
1360.089;-53.07
1360.288;-53.35
1360.487;-53.53
1360.686;-53.83
1360.885;-54.33
1361.084;-54.73
1361.283;-55.0
1361.482;-55.16
1361.681;-55.35
1361.881;-55.42
1362.08;-55.54
1362.279;-55.77
1362.478;-55.89
1362.677;-55.78
1362.876;-55.45
1363.075;-55.17
1363.274;-54.7
1363.474;-54.5
1363.673;-54.33
1363.872;-54.2
1364.071;-54.16
1364.27;-54.12
1364.469;-54.15
1364.668;-54.46
1364.867;-54.46
1365.066;-54.24
1365.266;-54.19
1365.465;-53.98
1365.664;-53.88
1365.863;-53.76
1366.062;-53.65
1366.261;-53.53
1366.46;-53.49
1366.659;-53.55
1366.858;-53.71
1367.058;-53.79
1367.257;-53.86
1367.456;-54.07
1367.655;-54.22
1367.854;-54.49
1368.053;-54.62
1368.252;-54.65
1368.451;-54.98
1368.65;-55.12
1368.85;-55.31
1369.049;-55.36
1369.248;-55.45
1369.447;-55.45
1369.646;-55.65
1369.845;-56.07
1370.044;-56.4
1370.243;-56.7
1370.443;-56.91
1370.642;-57.12
1370.841;-57.54
1371.04;-58.0
1371.239;-58.4
1371.438;-58.6
1371.637;-58.85
1371.836;-58.98
1372.035;-59.35
1372.235;-59.77
1372.434;-60.09
1372.633;-60.34
1372.832;-60.54
1373.031;-60.73
1373.23;-60.97
1373.429;-61.29
1373.628;-61.51
1373.827;-61.62
1374.027;-61.75
1374.226;-61.84
1374.425;-61.93
1374.624;-62.02
1374.823;-62.1
1375.022;-62.15
1375.221;-62.1
1375.42;-61.99
1375.62;-61.9
1375.819;-61.83
1376.018;-61.74
1376.217;-61.68
1376.416;-61.58
1376.615;-61.48
1376.814;-61.4
1377.013;-61.45
1377.212;-61.43
1377.412;-61.3
1377.611;-61.2
1377.81;-61.02
1378.009;-60.9
1378.208;-60.88
1378.407;-60.9
1378.606;-61.03
1378.805;-61.2
1379.004;-61.26
1379.204;-61.25
1379.403;-61.15
1379.602;-61.07
1379.801;-61.08
1380.0;-61.19
1380.199;-61.34
1380.398;-61.5
1380.597;-62.05
1380.797;-62.53
1380.996;-62.78
1381.195;-62.89
1381.394;-62.73
1381.593;-62.55
1381.792;-62.69
1381.991;-62.85
1382.19;-63.13
1382.389;-63.57
1382.589;-64.25
1382.788;-64.88
1382.987;-65.42
1383.186;-65.54
1383.385;-65.6
1383.584;-65.57
1383.783;-66.02
1383.982;-66.49
1384.181;-66.95
1384.381;-67.37
1384.58;-67.66
1384.779;-68.08
1384.978;-68.79
1385.177;-69.49
1385.376;-70.07
1385.575;-70.77
1385.774;-71.01
1385.974;-71.66
1386.173;-71.96
1386.372;-72.9
1386.571;-73.12
1386.77;-73.66
1386.969;-73.77
1387.168;-73.95
1387.367;-73.7
1387.566;-73.47
1387.766;-73.74
1387.965;-73.39
1388.164;-72.9
1388.363;-72.87
1388.562;-72.32
1388.761;-71.75
1388.96;-71.23
1389.159;-70.7
1389.358;-70.32
1389.558;-69.99
1389.757;-69.63
1389.956;-69.38
1390.155;-69.11
1390.354;-68.91
1390.553;-68.59
1390.752;-68.31
1390.951;-68.2
1391.15;-67.98
1391.35;-67.81
1391.549;-67.76
1391.748;-67.5
1391.947;-67.45
1392.146;-67.49
1392.345;-67.57
1392.544;-67.89
1392.743;-67.86
1392.943;-67.83
1393.142;-67.54
1393.341;-67.31
1393.54;-67.24
1393.739;-67.29
1393.938;-67.36
1394.137;-67.34
1394.336;-67.5
1394.535;-67.62
1394.735;-67.82
1394.934;-68.07
1395.133;-68.42
1395.332;-68.66
1395.531;-68.81
1395.73;-68.99
1395.929;-69.03
1396.128;-69.15
1396.327;-69.45
1396.527;-69.85
1396.726;-70.32
1396.925;-70.39
1397.124;-70.5
1397.323;-70.54
1397.522;-70.85
1397.721;-71.16
1397.92;-71.42
1398.12;-71.63
1398.319;-71.84
1398.518;-72.22
1398.717;-72.77
1398.916;-73.14
1399.115;-73.37
1399.314;-73.49
1399.513;-74.07
1399.712;-74.21
1399.912;-74.74
1400.111;-74.52
1400.31;-74.8
1400.509;-74.92
1400.708;-75.58
1400.907;-75.32
1401.106;-75.85
1401.305;-75.78
1401.504;-75.64
1401.704;-75.39
1401.903;-75.09
1402.102;-75.34
1402.301;-74.7
1402.5;-74.94
1402.699;-74.4
1402.898;-74.71
1403.097;-74.74
1403.297;-74.38
1403.496;-74.39
1403.695;-74.38
1403.894;-74.37
1404.093;-74.36
1404.292;-74.18
1404.491;-74.89
1404.69;-74.23
1404.889;-75.11
1405.089;-74.74
1405.288;-75.42
1405.487;-74.97
1405.686;-75.05
1405.885;-74.97
1406.084;-74.94
1406.283;-74.61
1406.482;-74.52
1406.681;-75.05
1406.881;-75.25
1407.08;-74.92
1407.279;-75.63
1407.478;-75.89
1407.677;-75.59
1407.876;-75.76
1408.075;-75.97
1408.274;-75.8
1408.474;-76.72
1408.673;-76.0
1408.872;-76.64
1409.071;-76.34
1409.27;-76.63
1409.469;-76.42
1409.668;-77.27
1409.867;-76.84
1410.066;-76.75
1410.266;-77.47
1410.465;-77.85
1410.664;-76.77
1410.863;-77.94
1411.062;-77.64
1411.261;-77.47
1411.46;-77.49
1411.659;-77.54
1411.858;-76.64
1412.058;-76.72
1412.257;-77.17
1412.456;-76.9
1412.655;-77.27
1412.854;-76.7
1413.053;-76.37
1413.252;-77.33
1413.451;-76.51
1413.65;-76.01
1413.85;-76.87
1414.049;-76.35
1414.248;-76.29
1414.447;-77.48
1414.646;-76.65
1414.845;-77.06
1415.044;-76.33
1415.243;-76.22
1415.443;-76.04
1415.642;-76.52
1415.841;-75.48
1416.04;-75.69
1416.239;-76.52
1416.438;-77.61
1416.637;-75.93
1416.836;-75.67
1417.035;-76.45
1417.235;-76.01
1417.434;-76.01
1417.633;-76.22
1417.832;-76.42
1418.031;-76.87
1418.23;-77.42
1418.429;-77.46
1418.628;-76.71
1418.827;-76.8
1419.027;-76.67
1419.226;-75.96
1419.425;-76.65
1419.624;-76.62
1419.823;-76.98
1420.022;-76.83
1420.221;-76.48
1420.42;-77.34
1420.62;-77.68
1420.819;-77.7
1421.018;-77.61
1421.217;-77.42
1421.416;-77.77
1421.615;-77.39
1421.814;-77.96
1422.013;-77.43
1422.212;-78.97
1422.412;-78.36
1422.611;-77.33
1422.81;-77.43
1423.009;-77.6
1423.208;-77.53
1423.407;-77.47
1423.606;-77.24
1423.805;-78.85
1424.004;-78.91
1424.204;-77.73
1424.403;-77.17
1424.602;-78.46
1424.801;-77.94
1425.0;-77.56
