Wavelength (nm);Intensity (dBm)
1131.0;1131.0
1200.0;-61.44
1200.199;-61.4
1200.398;-61.37
1200.597;-61.35
1200.797;-61.28
1200.996;-61.2
1201.195;-61.15
1201.394;-61.16
1201.593;-61.09
1201.792;-61.0
1201.991;-60.96
1202.19;-60.92
1202.389;-60.89
1202.589;-60.84
1202.788;-60.8
1202.987;-60.79
1203.186;-60.76
1203.385;-60.77
1203.584;-60.73
1203.783;-60.74
1203.982;-60.72
1204.181;-60.69
1204.381;-60.65
1204.58;-60.61
1204.779;-60.62
1204.978;-60.58
1205.177;-60.53
1205.376;-60.48
1205.575;-60.41
1205.774;-60.39
1205.974;-60.35
1206.173;-60.25
1206.372;-60.22
1206.571;-60.23
1206.77;-60.17
1206.969;-60.11
1207.168;-60.06
1207.367;-60.04
1207.566;-60.02
1207.766;-59.93
1207.965;-59.9
1208.164;-59.88
1208.363;-59.87
1208.562;-59.79
1208.761;-59.74
1208.96;-59.73
1209.159;-59.7
1209.358;-59.61
1209.558;-59.55
1209.757;-59.52
1209.956;-59.51
1210.155;-59.44
1210.354;-59.36
1210.553;-59.34
1210.752;-59.33
1210.951;-59.3
1211.15;-59.22
1211.35;-59.2
1211.549;-59.22
1211.748;-59.21
1211.947;-59.17
1212.146;-59.15
1212.345;-59.16
1212.544;-59.19
1212.743;-59.17
1212.943;-59.15
1213.142;-59.18
1213.341;-59.2
1213.54;-59.19
1213.739;-59.17
1213.938;-59.2
1214.137;-59.22
1214.336;-59.18
1214.535;-59.17
1214.735;-59.16
1214.934;-59.17
1215.133;-59.13
1215.332;-59.07
1215.531;-59.05
1215.73;-59.03
1215.929;-59.0
1216.128;-58.93
1216.327;-58.88
1216.527;-58.86
1216.726;-58.83
1216.925;-58.76
1217.124;-58.68
1217.323;-58.68
1217.522;-58.65
1217.721;-58.58
1217.92;-58.49
1218.12;-58.45
1218.319;-58.41
1218.518;-58.34
1218.717;-58.24
1218.916;-58.18
1219.115;-58.1
1219.314;-58.01
1219.513;-57.9
1219.712;-57.8
1219.912;-57.74
1220.111;-57.62
1220.31;-57.49
1220.509;-57.38
1220.708;-57.31
1220.907;-57.21
1221.106;-57.07
1221.305;-56.96
1221.504;-56.86
1221.704;-56.76
1221.903;-56.64
1222.102;-56.51
1222.301;-56.45
1222.5;-56.33
1222.699;-56.22
1222.898;-56.12
1223.097;-56.03
1223.297;-55.96
1223.496;-55.8
1223.695;-55.76
1223.894;-55.7
1224.093;-55.65
1224.292;-55.58
1224.491;-55.5
1224.69;-55.48
1224.889;-55.43
1225.089;-55.38
1225.288;-55.35
1225.487;-55.33
1225.686;-55.32
1225.885;-55.28
1226.084;-55.25
1226.283;-55.27
1226.482;-55.25
1226.681;-55.25
1226.881;-55.24
1227.08;-55.24
1227.279;-55.28
1227.478;-55.28
1227.677;-55.29
1227.876;-55.34
1228.075;-55.37
1228.274;-55.41
1228.474;-55.43
1228.673;-55.5
1228.872;-55.56
1229.071;-55.58
1229.27;-55.63
1229.469;-55.66
1229.668;-55.69
1229.867;-55.68
1230.066;-55.66
1230.266;-55.64
1230.465;-55.57
1230.664;-55.48
1230.863;-55.4
1231.062;-55.29
1231.261;-55.17
1231.46;-55.0
1231.659;-54.83
1231.858;-54.67
1232.058;-54.5
1232.257;-54.31
1232.456;-54.13
1232.655;-53.97
1232.854;-53.8
1233.053;-53.62
1233.252;-53.49
1233.451;-53.35
1233.65;-53.23
1233.85;-53.11
1234.049;-53.02
1234.248;-52.95
1234.447;-52.86
1234.646;-52.8
1234.845;-52.78
1235.044;-52.75
1235.243;-52.75
1235.443;-52.72
1235.642;-52.74
1235.841;-52.75
1236.04;-52.75
1236.239;-52.77
1236.438;-52.78
1236.637;-52.8
1236.836;-52.78
1237.035;-52.77
1237.235;-52.77
1237.434;-52.72
1237.633;-52.67
1237.832;-52.62
1238.031;-52.55
1238.23;-52.48
1238.429;-52.37
1238.628;-52.31
1238.827;-52.21
1239.027;-52.09
1239.226;-51.98
1239.425;-51.86
1239.624;-51.76
1239.823;-51.62
1240.022;-51.49
1240.221;-51.38
1240.42;-51.24
1240.62;-51.11
1240.819;-50.98
1241.018;-50.86
1241.217;-50.74
1241.416;-50.61
1241.615;-50.51
1241.814;-50.42
1242.013;-50.32
1242.212;-50.25
1242.412;-50.19
1242.611;-50.13
1242.81;-50.06
1243.009;-50.01
1243.208;-49.98
1243.407;-49.91
1243.606;-49.85
1243.805;-49.78
1244.004;-49.7
1244.204;-49.6
1244.403;-49.48
1244.602;-49.36
1244.801;-49.2
1245.0;-49.02
1245.199;-48.85
1245.398;-48.65
1245.597;-48.43
1245.797;-48.19
1245.996;-47.96
1246.195;-47.74
1246.394;-47.5
1246.593;-47.28
1246.792;-47.06
1246.991;-46.83
1247.19;-46.63
1247.389;-46.44
1247.589;-46.25
1247.788;-46.06
1247.987;-45.89
1248.186;-45.72
1248.385;-45.6
1248.584;-45.45
1248.783;-45.32
1248.982;-45.22
1249.181;-45.09
1249.381;-44.98
1249.58;-44.88
1249.779;-44.78
1249.978;-44.69
1250.177;-44.59
1250.376;-44.51
1250.575;-44.44
1250.774;-44.36
1250.974;-44.33
1251.173;-44.28
1251.372;-44.26
1251.571;-44.27
1251.77;-44.29
1251.969;-44.34
1252.168;-44.41
1252.367;-44.52
1252.566;-44.68
1252.766;-44.85
1252.965;-45.08
1253.164;-45.31
1253.363;-45.57
1253.562;-45.85
1253.761;-46.09
1253.96;-46.32
1254.159;-46.44
1254.358;-46.46
1254.558;-46.33
1254.757;-46.02
1254.956;-45.54
1255.155;-44.91
1255.354;-44.19
1255.553;-43.39
1255.752;-42.57
1255.951;-41.77
1256.15;-40.97
1256.35;-40.22
1256.549;-39.5
1256.748;-38.83
1256.947;-38.21
1257.146;-37.63
1257.345;-37.12
1257.544;-36.64
1257.743;-36.21
1257.943;-35.77
1258.142;-35.5
1258.341;-35.2
1258.54;-34.93
1258.739;-34.72
1258.938;-34.51
1259.137;-34.34
1259.336;-34.2
1259.535;-34.08
1259.735;-33.97
1259.934;-33.86
1260.133;-33.78
1260.332;-33.7
1260.531;-33.61
1260.73;-33.52
1260.929;-33.4
1261.128;-33.28
1261.327;-33.13
1261.527;-32.98
1261.726;-32.81
1261.925;-32.61
1262.124;-32.41
1262.323;-32.2
1262.522;-31.99
1262.721;-31.79
1262.92;-31.58
1263.12;-31.4
1263.319;-31.22
1263.518;-31.07
1263.717;-30.96
1263.916;-30.85
1264.115;-30.78
1264.314;-30.75
1264.513;-30.75
1264.712;-30.81
1264.912;-30.88
1265.111;-31.02
1265.31;-31.19
1265.509;-31.44
1265.708;-31.74
1265.907;-32.09
1266.106;-32.52
1266.305;-33.0
1266.504;-33.58
1266.704;-34.24
1266.903;-34.96
1267.102;-35.76
1267.301;-36.62
1267.5;-37.53
1267.699;-38.59
1267.898;-39.2
1268.097;-39.8
1268.297;-40.09
1268.496;-40.09
1268.695;-39.79
1268.894;-39.32
1269.093;-38.77
1269.292;-38.18
1269.491;-37.65
1269.69;-37.15
1269.889;-36.69
1270.089;-36.28
1270.288;-35.81
1270.487;-35.5
1270.686;-35.1
1270.885;-34.68
1271.084;-34.21
1271.283;-33.7
1271.482;-33.15
1271.681;-32.54
1271.881;-31.9
1272.08;-31.22
1272.279;-30.54
1272.478;-29.86
1272.677;-29.19
1272.876;-28.56
1273.075;-27.94
1273.274;-27.37
1273.474;-26.84
1273.673;-26.35
1273.872;-25.84
1274.071;-25.52
1274.27;-25.19
1274.469;-24.89
1274.668;-24.64
1274.867;-24.44
1275.066;-24.28
1275.266;-24.19
1275.465;-24.12
1275.664;-24.12
1275.863;-24.16
1276.062;-24.25
1276.261;-24.41
1276.46;-24.61
1276.659;-24.87
1276.858;-25.18
1277.058;-25.56
1277.257;-26.0
1277.456;-26.48
1277.655;-27.0
1277.854;-27.53
1278.053;-28.05
1278.252;-28.6
1278.451;-28.87
1278.65;-29.02
1278.85;-28.97
1279.049;-28.72
1279.248;-28.27
1279.447;-27.71
1279.646;-27.08
1279.845;-26.43
1280.044;-25.71
1280.243;-25.22
1280.443;-24.69
1280.642;-24.2
1280.841;-23.77
1281.04;-23.39
1281.239;-23.08
1281.438;-22.84
1281.637;-22.64
1281.836;-22.51
1282.035;-22.43
1282.235;-22.41
1282.434;-22.46
1282.633;-22.56
1282.832;-22.72
1283.031;-22.9
1283.23;-23.14
1283.429;-23.41
1283.628;-23.69
1283.827;-23.98
1284.027;-24.22
1284.226;-24.43
1284.425;-24.55
1284.624;-24.57
1284.823;-24.49
1285.022;-24.26
1285.221;-23.95
1285.42;-23.55
1285.62;-23.1
1285.819;-22.65
1286.018;-22.15
1286.217;-21.69
1286.416;-21.25
1286.615;-20.85
1286.814;-20.49
1287.013;-20.16
1287.212;-19.89
1287.412;-19.67
1287.611;-19.49
1287.81;-19.39
1288.009;-19.32
1288.208;-19.32
1288.407;-19.36
1288.606;-19.45
1288.805;-19.61
1289.004;-19.81
1289.204;-20.06
1289.403;-20.35
1289.602;-20.69
1289.801;-21.08
1290.0;-21.48
1290.199;-21.91
1290.398;-22.32
1290.597;-22.72
1290.797;-23.08
1290.996;-23.32
1291.195;-23.48
1291.394;-23.49
1291.593;-23.38
1291.792;-23.17
1291.991;-22.87
1292.19;-22.54
1292.389;-22.15
1292.589;-21.77
1292.788;-21.41
1292.987;-21.07
1293.186;-20.79
1293.385;-20.52
1293.584;-20.31
1293.783;-20.12
1293.982;-19.99
1294.181;-19.91
1294.381;-19.85
1294.58;-19.84
1294.779;-19.84
1294.978;-19.88
1295.177;-19.94
1295.376;-20.01
1295.575;-20.08
1295.774;-20.13
1295.974;-20.18
1296.173;-20.21
1296.372;-20.22
1296.571;-20.19
1296.77;-20.12
1296.969;-20.03
1297.168;-19.89
1297.367;-19.73
1297.566;-19.56
1297.766;-19.37
1297.965;-19.19
1298.164;-18.99
1298.363;-18.82
1298.562;-18.64
1298.761;-18.49
1298.96;-18.38
1299.159;-18.27
1299.358;-18.21
1299.558;-18.15
1299.757;-18.12
1299.956;-18.14
1300.155;-18.16
1300.354;-18.23
1300.553;-18.29
1300.752;-18.39
1300.951;-18.51
1301.15;-18.64
1301.35;-18.79
1301.549;-18.94
1301.748;-19.08
1301.947;-19.21
1302.146;-19.35
1302.345;-19.48
1302.544;-19.58
1302.743;-19.67
1302.943;-19.74
1303.142;-19.81
1303.341;-19.88
1303.54;-19.94
1303.739;-20.01
1303.938;-20.07
1304.137;-20.16
1304.336;-20.27
1304.535;-20.39
1304.735;-20.54
1304.934;-20.71
1305.133;-20.93
1305.332;-21.17
1305.531;-21.45
1305.73;-21.78
1305.929;-22.11
1306.128;-22.49
1306.327;-22.86
1306.527;-23.25
1306.726;-23.62
1306.925;-23.93
1307.124;-24.18
1307.323;-24.31
1307.522;-24.32
1307.721;-24.2
1307.92;-23.95
1308.12;-23.62
1308.319;-23.19
1308.518;-22.74
1308.717;-22.27
1308.916;-21.78
1309.115;-21.35
1309.314;-20.91
1309.513;-20.53
1309.712;-20.17
1309.912;-19.84
1310.111;-19.58
1310.31;-19.32
1310.509;-19.13
1310.708;-18.95
1310.907;-18.81
1311.106;-18.71
1311.305;-18.63
1311.504;-18.6
1311.704;-18.56
1311.903;-18.56
1312.102;-18.58
1312.301;-18.62
1312.5;-18.69
1312.699;-18.76
1312.898;-18.85
1313.097;-18.94
1313.297;-19.06
1313.496;-19.19
1313.695;-19.32
1313.894;-19.48
1314.093;-19.62
1314.292;-19.79
1314.491;-19.96
1314.69;-20.13
1314.889;-20.32
1315.089;-20.5
1315.288;-20.71
1315.487;-20.92
1315.686;-21.12
1315.885;-21.33
1316.084;-21.53
1316.283;-21.75
1316.482;-21.93
1316.681;-22.11
1316.881;-22.26
1317.08;-22.4
1317.279;-22.51
1317.478;-22.58
1317.677;-22.62
1317.876;-22.6
1318.075;-22.57
1318.274;-22.52
1318.474;-22.43
1318.673;-22.35
1318.872;-22.23
1319.071;-22.13
1319.27;-22.01
1319.469;-21.9
1319.668;-21.82
1319.867;-21.72
1320.066;-21.67
1320.266;-21.61
1320.465;-21.6
1320.664;-21.6
1320.863;-21.61
1321.062;-21.66
1321.261;-21.72
1321.46;-21.82
1321.659;-21.91
1321.858;-22.04
1322.058;-22.19
1322.257;-22.35
1322.456;-22.54
1322.655;-22.72
1322.854;-22.93
1323.053;-23.13
1323.252;-23.34
1323.451;-23.58
1323.65;-23.79
1323.85;-24.04
1324.049;-24.26
1324.248;-24.5
1324.447;-24.74
1324.646;-24.97
1324.845;-25.23
1325.044;-25.47
1325.243;-25.74
1325.443;-26.0
1325.642;-26.29
1325.841;-26.59
1326.04;-26.89
1326.239;-27.23
1326.438;-27.55
1326.637;-27.91
1326.836;-28.28
1327.035;-28.75
1327.235;-29.07
1327.434;-29.47
1327.633;-29.89
1327.832;-30.29
1328.031;-30.71
1328.23;-31.11
1328.429;-31.5
1328.628;-31.87
1328.827;-32.21
1329.027;-32.55
1329.226;-32.82
1329.425;-33.08
1329.624;-33.3
1329.823;-33.48
1330.022;-33.64
1330.221;-33.75
1330.42;-33.84
1330.62;-33.88
1330.819;-33.89
1331.018;-33.87
1331.217;-33.79
1331.416;-33.69
1331.615;-33.53
1331.814;-33.35
1332.013;-33.14
1332.212;-32.91
1332.412;-32.68
1332.611;-32.42
1332.81;-32.17
1333.009;-31.91
1333.208;-31.67
1333.407;-31.46
1333.606;-31.25
1333.805;-31.1
1334.004;-30.95
1334.204;-30.85
1334.403;-30.78
1334.602;-30.74
1334.801;-30.77
1335.0;-30.81
1335.199;-30.93
1335.398;-31.07
1335.597;-31.27
1335.797;-31.53
1335.996;-31.84
1336.195;-32.22
1336.394;-32.64
1336.593;-33.15
1336.792;-33.71
1336.991;-34.36
1337.19;-35.12
1337.389;-35.96
1337.589;-36.94
1337.788;-38.03
1337.987;-39.58
1338.186;-40.77
1338.385;-42.45
1338.584;-44.38
1338.783;-46.48
1338.982;-48.88
1339.181;-49.42
1339.381;-48.77
1339.58;-47.2
1339.779;-45.3
1339.978;-44.13
1340.177;-42.97
1340.376;-42.01
1340.575;-41.25
1340.774;-40.66
1340.974;-40.19
1341.173;-39.86
1341.372;-39.62
1341.571;-39.49
1341.77;-39.45
1341.969;-39.49
1342.168;-39.62
1342.367;-39.8
1342.566;-40.07
1342.766;-40.4
1342.965;-40.78
1343.164;-41.24
1343.363;-41.71
1343.562;-42.22
1343.761;-42.74
1343.96;-43.25
1344.159;-43.74
1344.358;-44.14
1344.558;-44.46
1344.757;-44.63
1344.956;-44.7
1345.155;-44.65
1345.354;-44.5
1345.553;-44.32
1345.752;-44.09
1345.951;-43.87
1346.15;-43.64
1346.35;-43.45
1346.549;-43.31
1346.748;-43.17
1346.947;-43.09
1347.146;-43.05
1347.345;-43.04
1347.544;-43.14
1347.743;-43.28
1347.943;-43.46
1348.142;-43.62
1348.341;-43.85
1348.54;-44.06
1348.739;-44.32
1348.938;-44.61
1349.137;-44.9
1349.336;-45.2
1349.535;-45.5
1349.735;-45.79
1349.934;-46.1
1350.133;-46.4
1350.332;-46.72
1350.531;-46.97
1350.73;-47.15
1350.929;-47.27
1351.128;-47.33
1351.327;-47.4
1351.527;-47.46
1351.726;-47.57
1351.925;-47.62
1352.124;-47.65
1352.323;-47.72
1352.522;-47.81
1352.721;-47.88
1352.92;-47.96
1353.12;-48.17
1353.319;-48.28
1353.518;-48.51
1353.717;-48.71
1353.916;-48.9
1354.115;-49.19
1354.314;-49.57
1354.513;-49.97
1354.712;-50.51
1354.912;-51.09
1355.111;-51.62
1355.31;-52.15
1355.509;-52.6
1355.708;-53.29
1355.907;-54.08
1356.106;-54.86
1356.305;-55.64
1356.504;-56.52
1356.704;-57.13
1356.903;-58.06
1357.102;-59.44
1357.301;-60.31
1357.5;-61.31
1357.699;-62.15
1357.898;-62.58
1358.097;-62.69
1358.297;-62.7
1358.496;-62.41
1358.695;-61.91
1358.894;-61.32
1359.093;-60.71
1359.292;-60.09
1359.491;-59.85
1359.69;-59.57
1359.889;-59.17
1360.089;-58.73
1360.288;-58.36
1360.487;-58.01
1360.686;-57.9
1360.885;-58.01
1361.084;-58.12
1361.283;-58.12
1361.482;-58.19
1361.681;-58.39
1361.881;-58.51
1362.08;-58.79
1362.279;-59.29
1362.478;-59.64
1362.677;-59.93
1362.876;-60.01
1363.075;-60.17
1363.274;-60.08
1363.474;-60.37
1363.673;-60.65
1363.872;-60.98
1364.071;-61.32
1364.27;-61.61
1364.469;-62.02
1364.668;-62.52
1364.867;-62.79
1365.066;-62.72
1365.266;-62.85
1365.465;-62.78
1365.664;-62.73
1365.863;-62.76
1366.062;-62.73
1366.261;-62.77
1366.46;-62.88
1366.659;-63.13
1366.858;-63.51
1367.058;-63.86
1367.257;-64.26
1367.456;-64.85
1367.655;-65.41
1367.854;-66.19
1368.053;-66.93
1368.252;-67.56
1368.451;-68.49
1368.65;-69.21
1368.85;-70.26
1369.049;-70.92
1369.248;-71.36
1369.447;-71.24
1369.646;-71.03
1369.845;-70.86
1370.044;-70.29
1370.243;-69.56
1370.443;-68.66
1370.642;-67.75
1370.841;-67.45
1371.04;-66.97
1371.239;-66.48
1371.438;-65.98
1371.637;-65.44
1371.836;-65.03
1372.035;-64.94
1372.235;-64.84
1372.434;-64.76
1372.633;-64.69
1372.832;-64.68
1373.031;-64.72
1373.23;-64.82
1373.429;-65.06
1373.628;-65.29
1373.827;-65.54
1374.027;-65.85
1374.226;-66.14
1374.425;-66.51
1374.624;-66.86
1374.823;-67.44
1375.022;-67.9
1375.221;-68.1
1375.42;-68.54
1375.62;-68.63
1375.819;-69.02
1376.018;-69.08
1376.217;-69.36
1376.416;-69.56
1376.615;-69.45
1376.814;-69.53
1377.013;-69.7
1377.212;-69.61
1377.412;-69.34
1377.611;-69.29
1377.81;-69.15
1378.009;-69.13
1378.208;-69.04
1378.407;-69.01
1378.606;-69.16
1378.805;-69.34
1379.004;-69.53
1379.204;-69.5
1379.403;-69.46
1379.602;-69.38
1379.801;-69.49
1380.0;-69.73
1380.199;-69.87
1380.398;-70.08
1380.597;-70.64
1380.797;-71.31
1380.996;-71.49
1381.195;-71.65
1381.394;-71.49
1381.593;-71.33
1381.792;-71.36
1381.991;-71.57
1382.19;-72.09
1382.389;-72.51
1382.589;-73.08
1382.788;-73.7
1382.987;-74.29
1383.186;-74.0
1383.385;-74.42
1383.584;-74.56
1383.783;-74.53
1383.982;-75.05
1384.181;-74.71
1384.381;-75.01
1384.58;-75.27
1384.779;-75.76
1384.978;-76.25
1385.177;-76.01
1385.376;-75.56
1385.575;-76.29
1385.774;-76.21
1385.974;-75.94
1386.173;-75.51
1386.372;-75.56
1386.571;-75.32
1386.77;-75.51
1386.969;-75.67
1387.168;-75.09
1387.367;-74.85
1387.566;-75.32
1387.766;-75.35
1387.965;-75.27
1388.164;-75.12
1388.363;-75.58
1388.562;-74.77
1388.761;-75.66
1388.96;-75.79
1389.159;-75.22
1389.358;-75.44
1389.558;-75.28
1389.757;-75.59
1389.956;-75.94
1390.155;-75.67
1390.354;-76.13
1390.553;-76.74
1390.752;-77.24
1390.951;-77.1
1391.15;-77.26
1391.35;-78.68
1391.549;-78.69
1391.748;-78.93
1391.947;-80.04
1392.146;-81.03
1392.345;-79.67
1392.544;-84.44
1392.743;-81.12
1392.943;-79.74
1393.142;-81.82
1393.341;-81.88
1393.54;-81.43
1393.739;-81.54
1393.938;-82.18
1394.137;-81.7
1394.336;-83.01
1394.535;-82.72
1394.735;-81.54
1394.934;-81.43
1395.133;-79.89
1395.332;-82.0
1395.531;-81.43
1395.73;-81.7
1395.929;-81.54
1396.128;-81.28
1396.327;-80.84
1396.527;-80.28
1396.726;-82.12
1396.925;-82.18
1397.124;-80.53
1397.323;-80.48
1397.522;-80.44
1397.721;-80.08
1397.92;-79.4
1398.12;-79.2
1398.319;-78.96
1398.518;-79.24
1398.717;-80.54
1398.916;-80.99
1399.115;-79.51
1399.314;-79.0
1399.513;-79.06
1399.712;-78.3
1399.912;-79.37
1400.111;-80.49
1400.31;-80.76
1400.509;-79.09
1400.708;-80.54
1400.907;-79.82
1401.106;-81.55
1401.305;-81.29
1401.504;-79.75
1401.704;-80.25
1401.903;-80.33
1402.102;-79.47
1402.301;-80.41
1402.5;-80.37
1402.699;-80.25
1402.898;-79.51
1403.097;-79.82
1403.297;-81.09
1403.496;-80.05
1403.695;-80.21
1403.894;-82.19
1404.093;-81.55
1404.292;-83.77
1404.491;-81.71
1404.69;-79.82
1404.889;-80.85
1405.089;-82.95
1405.288;-81.77
1405.487;-80.89
1405.686;-81.44
1405.885;-81.44
1406.084;-82.19
1406.283;-82.45
1406.482;-81.13
1406.681;-82.08
1406.881;-80.77
1407.08;-81.3
1407.279;-81.72
1407.478;-80.77
1407.677;-84.15
1407.876;-81.19
1408.075;-82.88
1408.274;-81.9
1408.474;-81.78
1408.673;-81.78
1408.872;-82.14
1409.071;-82.53
1409.27;-81.35
1409.469;-84.06
1409.668;-80.34
1409.867;-82.02
1410.066;-83.27
1410.266;-81.9
1410.465;-81.96
1410.664;-82.02
1410.863;-81.14
1411.062;-81.05
1411.261;-80.72
1411.46;-81.45
1411.659;-81.45
1411.858;-80.55
1412.058;-81.56
1412.257;-80.95
1412.456;-84.57
1412.655;-81.56
1412.854;-82.53
1413.053;-81.1
1413.252;-81.35
1413.451;-81.78
1413.65;-81.2
1413.85;-81.68
1414.049;-81.73
1414.248;-79.7
1414.447;-82.15
1414.646;-82.4
1414.845;-81.41
1415.044;-82.09
1415.243;-80.87
1415.443;-81.68
1415.642;-83.04
1415.841;-80.19
1416.04;-80.78
1416.239;-79.53
1416.438;-81.91
1416.637;-80.82
1416.836;-80.69
1417.035;-80.51
1417.235;-82.27
1417.434;-82.97
1417.633;-82.34
1417.832;-81.15
1418.031;-83.04
1418.23;-82.27
1418.429;-81.15
1418.628;-82.27
1418.827;-80.03
1419.027;-81.91
1419.226;-80.51
1419.425;-80.11
1419.624;-79.95
1419.823;-80.56
1420.022;-82.15
1420.221;-81.46
1420.42;-80.96
1420.62;-82.54
1420.819;-81.51
1421.018;-79.95
1421.217;-80.56
1421.416;-80.23
1421.615;-79.82
1421.814;-79.75
1422.013;-80.74
1422.212;-80.08
1422.412;-81.74
1422.611;-81.07
1422.81;-81.69
1423.009;-80.79
1423.208;-79.93
1423.407;-79.4
1423.606;-81.32
1423.805;-80.4
1424.004;-80.7
1424.204;-80.48
1424.403;-79.82
1424.602;-80.32
1424.801;-80.57
1425.0;-80.2
