Wavelength (nm);Intensity (dBm)
1131.0;1131.0
1200.0;-61.44
1200.199;-61.41
1200.398;-61.35
1200.597;-61.31
1200.797;-61.26
1200.996;-61.21
1201.195;-61.14
1201.394;-61.13
1201.593;-61.08
1201.792;-61.0
1201.991;-60.96
1202.19;-60.95
1202.389;-60.91
1202.589;-60.89
1202.788;-60.84
1202.987;-60.83
1203.186;-60.83
1203.385;-60.79
1203.584;-60.82
1203.783;-60.81
1203.982;-60.82
1204.181;-60.78
1204.381;-60.73
1204.58;-60.72
1204.779;-60.69
1204.978;-60.67
1205.177;-60.61
1205.376;-60.55
1205.575;-60.53
1205.774;-60.48
1205.974;-60.42
1206.173;-60.35
1206.372;-60.31
1206.571;-60.3
1206.77;-60.23
1206.969;-60.15
1207.168;-60.13
1207.367;-60.09
1207.566;-60.08
1207.766;-60.01
1207.965;-59.97
1208.164;-59.98
1208.363;-59.91
1208.562;-59.86
1208.761;-59.8
1208.96;-59.77
1209.159;-59.76
1209.358;-59.67
1209.558;-59.62
1209.757;-59.57
1209.956;-59.54
1210.155;-59.51
1210.354;-59.43
1210.553;-59.41
1210.752;-59.4
1210.951;-59.34
1211.15;-59.31
1211.35;-59.28
1211.549;-59.28
1211.748;-59.27
1211.947;-59.21
1212.146;-59.22
1212.345;-59.2
1212.544;-59.23
1212.743;-59.21
1212.943;-59.18
1213.142;-59.22
1213.341;-59.26
1213.54;-59.25
1213.739;-59.23
1213.938;-59.24
1214.137;-59.26
1214.336;-59.23
1214.535;-59.2
1214.735;-59.21
1214.934;-59.2
1215.133;-59.18
1215.332;-59.11
1215.531;-59.09
1215.73;-59.07
1215.929;-59.0
1216.128;-58.94
1216.327;-58.89
1216.527;-58.88
1216.726;-58.83
1216.925;-58.75
1217.124;-58.69
1217.323;-58.64
1217.522;-58.62
1217.721;-58.53
1217.92;-58.44
1218.12;-58.41
1218.319;-58.35
1218.518;-58.29
1218.717;-58.19
1218.916;-58.13
1219.115;-58.07
1219.314;-57.96
1219.513;-57.87
1219.712;-57.78
1219.912;-57.71
1220.111;-57.6
1220.31;-57.49
1220.509;-57.4
1220.708;-57.32
1220.907;-57.21
1221.106;-57.09
1221.305;-56.98
1221.504;-56.9
1221.704;-56.78
1221.903;-56.65
1222.102;-56.54
1222.301;-56.44
1222.5;-56.33
1222.699;-56.19
1222.898;-56.1
1223.097;-56.01
1223.297;-55.92
1223.496;-55.78
1223.695;-55.71
1223.894;-55.66
1224.093;-55.58
1224.292;-55.51
1224.491;-55.45
1224.69;-55.41
1224.889;-55.36
1225.089;-55.3
1225.288;-55.25
1225.487;-55.23
1225.686;-55.19
1225.885;-55.14
1226.084;-55.09
1226.283;-55.07
1226.482;-55.05
1226.681;-54.98
1226.881;-54.97
1227.08;-54.93
1227.279;-54.91
1227.478;-54.88
1227.677;-54.85
1227.876;-54.86
1228.075;-54.86
1228.274;-54.85
1228.474;-54.87
1228.673;-54.9
1228.872;-54.94
1229.071;-54.96
1229.27;-55.01
1229.469;-55.07
1229.668;-55.13
1229.867;-55.16
1230.066;-55.22
1230.266;-55.27
1230.465;-55.32
1230.664;-55.32
1230.863;-55.34
1231.062;-55.35
1231.261;-55.33
1231.46;-55.28
1231.659;-55.2
1231.858;-55.12
1232.058;-55.01
1232.257;-54.86
1232.456;-54.73
1232.655;-54.57
1232.854;-54.39
1233.053;-54.21
1233.252;-54.03
1233.451;-53.87
1233.65;-53.69
1233.85;-53.52
1234.049;-53.38
1234.248;-53.22
1234.447;-53.08
1234.646;-52.95
1234.845;-52.86
1235.044;-52.77
1235.243;-52.67
1235.443;-52.62
1235.642;-52.57
1235.841;-52.53
1236.04;-52.49
1236.239;-52.47
1236.438;-52.47
1236.637;-52.45
1236.836;-52.43
1237.035;-52.43
1237.235;-52.43
1237.434;-52.41
1237.633;-52.38
1237.832;-52.38
1238.031;-52.34
1238.23;-52.29
1238.429;-52.24
1238.628;-52.19
1238.827;-52.13
1239.027;-52.04
1239.226;-51.94
1239.425;-51.87
1239.624;-51.76
1239.823;-51.63
1240.022;-51.51
1240.221;-51.39
1240.42;-51.27
1240.62;-51.12
1240.819;-51.01
1241.018;-50.88
1241.217;-50.75
1241.416;-50.64
1241.615;-50.53
1241.814;-50.46
1242.013;-50.36
1242.212;-50.3
1242.412;-50.26
1242.611;-50.2
1242.81;-50.16
1243.009;-50.11
1243.208;-50.08
1243.407;-50.04
1243.606;-49.96
1243.805;-49.93
1244.004;-49.83
1244.204;-49.73
1244.403;-49.62
1244.602;-49.48
1244.801;-49.33
1245.0;-49.14
1245.199;-48.97
1245.398;-48.79
1245.597;-48.57
1245.797;-48.37
1245.996;-48.16
1246.195;-47.97
1246.394;-47.78
1246.593;-47.59
1246.792;-47.45
1246.991;-47.27
1247.19;-47.14
1247.389;-47.03
1247.589;-46.91
1247.788;-46.82
1247.987;-46.73
1248.186;-46.67
1248.385;-46.62
1248.584;-46.56
1248.783;-46.54
1248.982;-46.51
1249.181;-46.48
1249.381;-46.46
1249.58;-46.43
1249.779;-46.42
1249.978;-46.37
1250.177;-46.34
1250.376;-46.31
1250.575;-46.25
1250.774;-46.21
1250.974;-46.17
1251.173;-46.13
1251.372;-46.08
1251.571;-46.06
1251.77;-46.06
1251.969;-46.04
1252.168;-46.06
1252.367;-46.09
1252.566;-46.13
1252.766;-46.17
1252.965;-46.2
1253.164;-46.21
1253.363;-46.16
1253.562;-46.08
1253.761;-45.92
1253.96;-45.63
1254.159;-45.33
1254.358;-44.87
1254.558;-44.37
1254.757;-43.76
1254.956;-43.11
1255.155;-42.45
1255.354;-41.76
1255.553;-41.09
1255.752;-40.41
1255.951;-39.77
1256.15;-39.16
1256.35;-38.57
1256.549;-38.04
1256.748;-37.52
1256.947;-37.05
1257.146;-36.62
1257.345;-36.23
1257.544;-35.84
1257.743;-35.58
1257.943;-35.32
1258.142;-35.08
1258.341;-34.88
1258.54;-34.72
1258.739;-34.57
1258.938;-34.47
1259.137;-34.38
1259.336;-34.32
1259.535;-34.29
1259.735;-34.25
1259.934;-34.24
1260.133;-34.23
1260.332;-34.22
1260.531;-34.21
1260.73;-34.18
1260.929;-34.15
1261.128;-34.08
1261.327;-34.0
1261.527;-33.89
1261.726;-33.75
1261.925;-33.6
1262.124;-33.41
1262.323;-33.22
1262.522;-33.01
1262.721;-32.79
1262.92;-32.58
1263.12;-32.35
1263.319;-32.15
1263.518;-31.96
1263.717;-31.77
1263.916;-31.62
1264.115;-31.46
1264.314;-31.35
1264.513;-31.26
1264.712;-31.18
1264.912;-31.15
1265.111;-31.13
1265.31;-31.16
1265.509;-31.22
1265.708;-31.31
1265.907;-31.44
1266.106;-31.59
1266.305;-31.79
1266.504;-32.02
1266.704;-32.28
1266.903;-32.58
1267.102;-32.88
1267.301;-33.21
1267.5;-33.55
1267.699;-33.89
1267.898;-34.24
1268.097;-34.55
1268.297;-34.85
1268.496;-35.11
1268.695;-35.34
1268.894;-35.53
1269.093;-35.66
1269.292;-35.76
1269.491;-35.82
1269.69;-35.82
1269.889;-35.78
1270.089;-35.67
1270.288;-35.52
1270.487;-35.3
1270.686;-35.01
1270.885;-34.67
1271.084;-34.24
1271.283;-33.77
1271.482;-33.24
1271.681;-32.68
1271.881;-32.08
1272.08;-31.48
1272.279;-30.88
1272.478;-30.26
1272.677;-29.68
1272.876;-29.11
1273.075;-28.57
1273.274;-28.06
1273.474;-27.58
1273.673;-27.15
1273.872;-26.74
1274.071;-26.37
1274.27;-26.0
1274.469;-25.76
1274.668;-25.52
1274.867;-25.3
1275.066;-25.14
1275.266;-24.99
1275.465;-24.89
1275.664;-24.85
1275.863;-24.83
1276.062;-24.86
1276.261;-24.93
1276.46;-25.05
1276.659;-25.22
1276.858;-25.44
1277.058;-25.73
1277.257;-26.06
1277.456;-26.46
1277.655;-26.91
1277.854;-27.4
1278.053;-27.95
1278.252;-28.6
1278.451;-29.05
1278.65;-29.51
1278.85;-29.86
1279.049;-30.01
1279.248;-29.92
1279.447;-29.62
1279.646;-29.1
1279.845;-28.46
1280.044;-27.74
1280.243;-27.0
1280.443;-26.29
1280.642;-25.48
1280.841;-24.97
1281.04;-24.38
1281.239;-23.86
1281.438;-23.39
1281.637;-22.99
1281.836;-22.65
1282.035;-22.36
1282.235;-22.14
1282.434;-21.96
1282.633;-21.84
1282.832;-21.79
1283.031;-21.77
1283.23;-21.81
1283.429;-21.89
1283.628;-22.01
1283.827;-22.19
1284.027;-22.38
1284.226;-22.61
1284.425;-22.84
1284.624;-23.09
1284.823;-23.34
1285.022;-23.54
1285.221;-23.72
1285.42;-23.81
1285.62;-23.83
1285.819;-23.77
1286.018;-23.61
1286.217;-23.4
1286.416;-23.1
1286.615;-22.78
1286.814;-22.43
1287.013;-22.07
1287.212;-21.75
1287.412;-21.42
1287.611;-21.15
1287.81;-20.92
1288.009;-20.72
1288.208;-20.6
1288.407;-20.5
1288.606;-20.47
1288.805;-20.49
1289.004;-20.57
1289.204;-20.71
1289.403;-20.9
1289.602;-21.15
1289.801;-21.46
1290.0;-21.82
1290.199;-22.25
1290.398;-22.71
1290.597;-23.25
1290.797;-23.79
1290.996;-24.34
1291.195;-24.89
1291.394;-25.36
1291.593;-25.74
1291.792;-25.96
1291.991;-26.01
1292.19;-25.89
1292.389;-25.61
1292.589;-25.22
1292.788;-24.76
1292.987;-24.29
1293.186;-23.82
1293.385;-23.36
1293.584;-22.95
1293.783;-22.56
1293.982;-22.23
1294.181;-21.93
1294.381;-21.66
1294.58;-21.43
1294.779;-21.22
1294.978;-21.05
1295.177;-20.87
1295.376;-20.71
1295.575;-20.55
1295.774;-20.4
1295.974;-20.24
1296.173;-20.07
1296.372;-19.91
1296.571;-19.72
1296.77;-19.55
1296.969;-19.38
1297.168;-19.2
1297.367;-19.04
1297.566;-18.87
1297.766;-18.73
1297.965;-18.61
1298.164;-18.51
1298.363;-18.44
1298.562;-18.37
1298.761;-18.36
1298.96;-18.38
1299.159;-18.42
1299.358;-18.52
1299.558;-18.62
1299.757;-18.77
1299.956;-18.95
1300.155;-19.16
1300.354;-19.4
1300.553;-19.64
1300.752;-19.91
1300.951;-20.16
1301.15;-20.42
1301.35;-20.64
1301.549;-20.82
1301.748;-20.94
1301.947;-20.97
1302.146;-20.96
1302.345;-20.86
1302.544;-20.71
1302.743;-20.52
1302.943;-20.28
1303.142;-20.04
1303.341;-19.79
1303.54;-19.56
1303.739;-19.36
1303.938;-19.16
1304.137;-19.03
1304.336;-18.91
1304.535;-18.84
1304.735;-18.81
1304.934;-18.8
1305.133;-18.87
1305.332;-18.93
1305.531;-19.06
1305.73;-19.21
1305.929;-19.38
1306.128;-19.59
1306.327;-19.78
1306.527;-19.99
1306.726;-20.18
1306.925;-20.33
1307.124;-20.48
1307.323;-20.54
1307.522;-20.56
1307.721;-20.51
1307.92;-20.4
1308.12;-20.26
1308.319;-20.06
1308.518;-19.87
1308.717;-19.62
1308.916;-19.39
1309.115;-19.18
1309.314;-18.97
1309.513;-18.81
1309.712;-18.65
1309.912;-18.54
1310.111;-18.46
1310.31;-18.4
1310.509;-18.41
1310.708;-18.42
1310.907;-18.48
1311.106;-18.58
1311.305;-18.7
1311.504;-18.87
1311.704;-19.04
1311.903;-19.25
1312.102;-19.46
1312.301;-19.7
1312.5;-19.95
1312.699;-20.2
1312.898;-20.45
1313.097;-20.67
1313.297;-20.9
1313.496;-21.1
1313.695;-21.28
1313.894;-21.44
1314.093;-21.57
1314.292;-21.7
1314.491;-21.79
1314.69;-21.88
1314.889;-21.94
1315.089;-22.01
1315.288;-22.09
1315.487;-22.17
1315.686;-22.25
1315.885;-22.33
1316.084;-22.42
1316.283;-22.51
1316.482;-22.61
1316.681;-22.73
1316.881;-22.81
1317.08;-22.91
1317.279;-22.98
1317.478;-23.04
1317.677;-23.09
1317.876;-23.09
1318.075;-23.1
1318.274;-23.07
1318.474;-23.02
1318.673;-22.98
1318.872;-22.91
1319.071;-22.85
1319.27;-22.77
1319.469;-22.71
1319.668;-22.66
1319.867;-22.61
1320.066;-22.59
1320.266;-22.57
1320.465;-22.59
1320.664;-22.62
1320.863;-22.67
1321.062;-22.75
1321.261;-22.84
1321.46;-22.98
1321.659;-23.11
1321.858;-23.28
1322.058;-23.46
1322.257;-23.65
1322.456;-23.86
1322.655;-24.08
1322.854;-24.33
1323.053;-24.56
1323.252;-24.82
1323.451;-25.07
1323.65;-25.33
1323.85;-25.61
1324.049;-25.88
1324.248;-26.18
1324.447;-26.47
1324.646;-26.78
1324.845;-27.11
1325.044;-27.45
1325.243;-27.83
1325.443;-28.21
1325.642;-28.73
1325.841;-29.08
1326.04;-29.55
1326.239;-30.03
1326.438;-30.54
1326.637;-31.06
1326.836;-31.58
1327.035;-32.11
1327.235;-32.59
1327.434;-33.04
1327.633;-33.42
1327.832;-33.72
1328.031;-33.93
1328.23;-34.03
1328.429;-34.06
1328.628;-34.0
1328.827;-33.89
1329.027;-33.75
1329.226;-33.57
1329.425;-33.39
1329.624;-33.21
1329.823;-33.03
1330.022;-32.87
1330.221;-32.72
1330.42;-32.59
1330.62;-32.45
1330.819;-32.32
1331.018;-32.19
1331.217;-32.06
1331.416;-31.94
1331.615;-31.79
1331.814;-31.65
1332.013;-31.49
1332.212;-31.33
1332.412;-31.17
1332.611;-31.02
1332.81;-30.88
1333.009;-30.73
1333.208;-30.61
1333.407;-30.5
1333.606;-30.42
1333.805;-30.38
1334.004;-30.36
1334.204;-30.39
1334.403;-30.44
1334.602;-30.55
1334.801;-30.7
1335.0;-30.9
1335.199;-31.17
1335.398;-31.47
1335.597;-31.84
1335.797;-32.29
1335.996;-32.8
1336.195;-33.4
1336.394;-34.06
1336.593;-34.84
1336.792;-35.7
1336.991;-36.72
1337.19;-37.88
1337.389;-39.5
1337.589;-40.76
1337.788;-42.49
1337.987;-44.43
1338.186;-46.32
1338.385;-47.56
1338.584;-47.42
1338.783;-46.19
1338.982;-44.64
1339.181;-43.19
1339.381;-41.96
1339.58;-40.93
1339.779;-40.12
1339.978;-39.46
1340.177;-38.95
1340.376;-38.58
1340.575;-38.32
1340.774;-38.17
1340.974;-38.09
1341.173;-38.11
1341.372;-38.23
1341.571;-38.43
1341.77;-38.72
1341.969;-39.08
1342.168;-39.53
1342.367;-40.05
1342.566;-40.66
1342.766;-41.37
1342.965;-42.14
1343.164;-43.0
1343.363;-43.89
1343.562;-44.8
1343.761;-45.67
1343.96;-46.42
1344.159;-46.94
1344.358;-47.15
1344.558;-47.07
1344.757;-46.74
1344.956;-46.25
1345.155;-45.72
1345.354;-45.18
1345.553;-44.71
1345.752;-44.28
1345.951;-43.93
1346.15;-43.67
1346.35;-43.46
1346.549;-43.35
1346.748;-43.28
1346.947;-43.27
1347.146;-43.33
1347.345;-43.43
1347.544;-43.66
1347.743;-43.92
1347.943;-44.23
1348.142;-44.54
1348.341;-44.91
1348.54;-45.28
1348.739;-45.67
1348.938;-46.1
1349.137;-46.52
1349.336;-46.93
1349.535;-47.34
1349.735;-47.7
1349.934;-48.06
1350.133;-48.36
1350.332;-48.74
1350.531;-48.88
1350.73;-48.99
1350.929;-49.01
1351.128;-48.98
1351.327;-48.95
1351.527;-48.91
1351.726;-48.94
1351.925;-48.89
1352.124;-48.85
1352.323;-48.83
1352.522;-48.86
1352.721;-48.86
1352.92;-48.87
1353.12;-49.03
1353.319;-49.04
1353.518;-49.15
1353.717;-49.3
1353.916;-49.39
1354.115;-49.56
1354.314;-49.82
1354.513;-50.08
1354.712;-50.48
1354.912;-50.89
1355.111;-51.24
1355.31;-51.58
1355.509;-51.82
1355.708;-52.3
1355.907;-52.86
1356.106;-53.38
1356.305;-53.88
1356.504;-54.47
1356.704;-54.8
1356.903;-55.44
1357.102;-56.29
1357.301;-57.07
1357.5;-57.82
1357.699;-58.66
1357.898;-58.96
1358.097;-59.22
1358.297;-59.48
1358.496;-59.55
1358.695;-59.34
1358.894;-59.01
1359.093;-58.58
1359.292;-58.04
1359.491;-57.86
1359.69;-57.59
1359.889;-57.2
1360.089;-56.75
1360.288;-56.25
1360.487;-56.02
1360.686;-55.88
1360.885;-56.01
1361.084;-56.13
1361.283;-56.18
1361.482;-56.33
1361.681;-56.56
1361.881;-56.79
1362.08;-57.17
1362.279;-57.83
1362.478;-58.35
1362.677;-59.11
1362.876;-59.37
1363.075;-59.9
1363.274;-60.21
1363.474;-60.95
1363.673;-61.79
1363.872;-62.69
1364.071;-63.6
1364.27;-64.47
1364.469;-65.24
1364.668;-65.97
1364.867;-66.15
1365.066;-65.77
1365.266;-65.46
1365.465;-64.94
1365.664;-64.34
1365.863;-63.82
1366.062;-63.31
1366.261;-62.91
1366.46;-62.62
1366.659;-62.59
1366.858;-62.61
1367.058;-62.67
1367.257;-62.82
1367.456;-63.14
1367.655;-63.46
1367.854;-63.98
1368.053;-64.51
1368.252;-64.97
1368.451;-65.75
1368.65;-66.41
1368.85;-67.3
1369.049;-68.14
1369.248;-68.94
1369.447;-69.64
1369.646;-70.35
1369.845;-71.36
1370.044;-71.84
1370.243;-71.4
1370.443;-70.96
1370.642;-70.12
1370.841;-69.83
1371.04;-69.31
1371.239;-68.71
1371.438;-67.99
1371.637;-67.45
1371.836;-66.94
1372.035;-66.73
1372.235;-66.57
1372.434;-66.36
1372.633;-66.3
1372.832;-66.16
1373.031;-66.15
1373.23;-66.28
1373.429;-66.45
1373.628;-66.6
1373.827;-66.78
1374.027;-67.01
1374.226;-67.26
1374.425;-67.51
1374.624;-67.92
1374.823;-68.11
1375.022;-68.4
1375.221;-68.76
1375.42;-68.67
1375.62;-68.72
1375.819;-68.74
1376.018;-68.96
1376.217;-68.93
1376.416;-68.91
1376.615;-68.88
1376.814;-68.76
1377.013;-68.77
1377.212;-68.79
1377.412;-68.7
1377.611;-68.72
1377.81;-68.45
1378.009;-68.4
1378.208;-68.45
1378.407;-68.56
1378.606;-68.81
1378.805;-69.05
1379.004;-69.12
1379.204;-69.3
1379.403;-69.43
1379.602;-69.27
1379.801;-69.41
1380.0;-69.56
1380.199;-69.9
1380.398;-70.01
1380.597;-70.68
1380.797;-70.94
1380.996;-71.3
1381.195;-71.38
1381.394;-71.27
1381.593;-71.02
1381.792;-71.18
1381.991;-71.36
1382.19;-71.56
1382.389;-71.93
1382.589;-72.71
1382.788;-72.85
1382.987;-73.23
1383.186;-73.31
1383.385;-73.25
1383.584;-73.28
1383.783;-73.62
1383.982;-74.08
1384.181;-74.28
1384.381;-73.95
1384.58;-74.25
1384.779;-74.26
1384.978;-74.75
1385.177;-75.04
1385.376;-75.16
1385.575;-74.97
1385.774;-75.02
1385.974;-75.04
1386.173;-74.72
1386.372;-74.66
1386.571;-74.62
1386.77;-74.78
1386.969;-74.75
1387.168;-74.37
1387.367;-74.58
1387.566;-75.0
1387.766;-74.95
1387.965;-75.27
1388.164;-75.7
1388.363;-75.51
1388.562;-75.3
1388.761;-75.55
1388.96;-75.59
1389.159;-76.34
1389.358;-76.13
1389.558;-76.1
1389.757;-76.65
1389.956;-77.24
1390.155;-77.48
1390.354;-77.57
1390.553;-78.68
1390.752;-78.1
1390.951;-78.08
1391.15;-78.31
1391.35;-79.88
1391.549;-79.5
1391.748;-81.43
1391.947;-80.08
1392.146;-80.48
1392.345;-81.08
1392.544;-81.76
1392.743;-81.08
1392.943;-80.57
1393.142;-83.33
1393.341;-83.33
1393.54;-80.66
1393.739;-82.18
1393.938;-79.5
1394.137;-82.24
1394.336;-81.54
1394.535;-81.43
1394.735;-82.51
1394.934;-84.77
1395.133;-83.76
1395.332;-82.0
1395.531;-80.93
1395.73;-82.12
1395.929;-80.36
1396.128;-81.54
1396.327;-82.51
1396.527;-81.17
1396.726;-80.66
1396.925;-79.81
1397.124;-81.54
1397.323;-80.75
1397.522;-81.03
1397.721;-79.11
1397.92;-81.82
1398.12;-81.48
1398.319;-79.96
1398.518;-80.09
1398.717;-80.09
1398.916;-80.62
1399.115;-81.18
1399.314;-78.91
1399.513;-79.47
1399.712;-80.67
1399.912;-80.85
1400.111;-80.33
1400.31;-81.23
1400.509;-79.9
1400.708;-81.44
1400.907;-80.85
1401.106;-81.71
1401.305;-80.58
1401.504;-80.76
1401.704;-81.34
1401.903;-81.18
1402.102;-82.45
1402.301;-81.04
1402.5;-80.67
1402.699;-81.71
1402.898;-80.05
1403.097;-80.33
1403.297;-82.66
1403.496;-81.13
1403.695;-84.14
1403.894;-81.23
1404.093;-80.58
1404.292;-81.66
1404.491;-81.13
1404.69;-81.44
1404.889;-81.23
1405.089;-82.01
1405.288;-81.04
1405.487;-81.83
1405.686;-80.13
1405.885;-80.58
1406.084;-82.52
1406.283;-81.34
1406.482;-83.1
1406.681;-81.14
1406.881;-81.56
1407.08;-81.9
1407.279;-81.67
1407.478;-83.35
1407.677;-80.06
1407.876;-82.2
1408.075;-80.77
1408.274;-82.14
1408.474;-81.45
1408.673;-80.72
1408.872;-82.14
1409.071;-81.3
1409.27;-82.81
1409.469;-85.27
1409.668;-83.78
1409.867;-84.06
1410.066;-82.26
1410.266;-83.11
1410.465;-82.2
1410.664;-81.9
1410.863;-80.02
1411.062;-80.55
1411.261;-80.18
1411.46;-81.72
1411.659;-81.67
1411.858;-80.42
1412.058;-79.91
1412.257;-81.35
1412.456;-81.84
1412.655;-86.44
1412.854;-81.72
1413.053;-79.48
1413.252;-80.77
1413.451;-82.26
1413.65;-83.28
1413.85;-80.43
1414.049;-82.54
1414.248;-80.15
1414.447;-80.51
1414.646;-80.87
1414.845;-81.97
1415.044;-80.87
1415.243;-81.31
1415.443;-80.87
1415.642;-79.14
1415.841;-81.79
1416.04;-83.97
1416.239;-81.01
1416.438;-82.54
1416.637;-79.46
1416.836;-81.01
1417.035;-80.56
1417.235;-82.03
1417.434;-84.58
1417.633;-82.27
1417.832;-79.63
1418.031;-81.15
1418.23;-81.01
1418.429;-81.31
1418.628;-81.73
1418.827;-80.35
1419.027;-81.15
1419.226;-80.69
1419.425;-81.57
1419.624;-81.06
1419.823;-81.91
1420.022;-81.06
1420.221;-81.31
1420.42;-81.11
1420.62;-80.27
1420.819;-80.35
1421.018;-82.54
1421.217;-81.68
1421.416;-80.96
1421.615;-80.0
1421.814;-78.51
1422.013;-81.74
1422.212;-80.52
1422.412;-81.32
1422.611;-78.76
1422.81;-81.12
1423.009;-80.16
1423.208;-80.79
1423.407;-80.48
1423.606;-80.92
1423.805;-79.34
1424.004;-80.2
1424.204;-81.07
1424.403;-79.82
1424.602;-80.79
1424.801;-80.24
1425.0;-83.45
