Wavelength (nm);Intensity (dBm)
1131.0;1131.0
1200.0;-61.46
1200.199;-61.42
1200.398;-61.42
1200.597;-61.37
1200.797;-61.37
1200.996;-61.3
1201.195;-61.26
1201.394;-61.23
1201.593;-61.17
1201.792;-61.11
1201.991;-61.03
1202.19;-61.01
1202.389;-60.96
1202.589;-60.9
1202.788;-60.88
1202.987;-60.84
1203.186;-60.82
1203.385;-60.78
1203.584;-60.73
1203.783;-60.73
1203.982;-60.7
1204.181;-60.66
1204.381;-60.63
1204.58;-60.61
1204.779;-60.6
1204.978;-60.55
1205.177;-60.52
1205.376;-60.46
1205.575;-60.44
1205.774;-60.45
1205.974;-60.36
1206.173;-60.29
1206.372;-60.29
1206.571;-60.29
1206.77;-60.28
1206.969;-60.22
1207.168;-60.19
1207.367;-60.2
1207.566;-60.17
1207.766;-60.15
1207.965;-60.13
1208.164;-60.12
1208.363;-60.09
1208.562;-60.05
1208.761;-60.01
1208.96;-60.02
1209.159;-59.95
1209.358;-59.9
1209.558;-59.85
1209.757;-59.82
1209.956;-59.79
1210.155;-59.71
1210.354;-59.65
1210.553;-59.59
1210.752;-59.57
1210.951;-59.5
1211.15;-59.42
1211.35;-59.36
1211.549;-59.33
1211.748;-59.28
1211.947;-59.23
1212.146;-59.14
1212.345;-59.13
1212.544;-59.1
1212.743;-59.04
1212.943;-58.99
1213.142;-58.96
1213.341;-58.95
1213.54;-58.89
1213.739;-58.86
1213.938;-58.86
1214.137;-58.85
1214.336;-58.78
1214.535;-58.74
1214.735;-58.73
1214.934;-58.71
1215.133;-58.66
1215.332;-58.61
1215.531;-58.56
1215.73;-58.55
1215.929;-58.49
1216.128;-58.39
1216.327;-58.34
1216.527;-58.3
1216.726;-58.26
1216.925;-58.14
1217.124;-58.07
1217.323;-58.04
1217.522;-57.97
1217.721;-57.89
1217.92;-57.81
1218.12;-57.77
1218.319;-57.72
1218.518;-57.66
1218.717;-57.6
1218.916;-57.56
1219.115;-57.53
1219.314;-57.47
1219.513;-57.42
1219.712;-57.42
1219.912;-57.4
1220.111;-57.38
1220.31;-57.35
1220.509;-57.34
1220.708;-57.35
1220.907;-57.32
1221.106;-57.27
1221.305;-57.27
1221.504;-57.25
1221.704;-57.23
1221.903;-57.17
1222.102;-57.13
1222.301;-57.12
1222.5;-57.04
1222.699;-56.98
1222.898;-56.92
1223.097;-56.86
1223.297;-56.8
1223.496;-56.7
1223.695;-56.65
1223.894;-56.59
1224.093;-56.52
1224.292;-56.45
1224.491;-56.38
1224.69;-56.35
1224.889;-56.29
1225.089;-56.22
1225.288;-56.18
1225.487;-56.13
1225.686;-56.08
1225.885;-56.01
1226.084;-55.93
1226.283;-55.89
1226.482;-55.79
1226.681;-55.72
1226.881;-55.62
1227.08;-55.55
1227.279;-55.45
1227.478;-55.32
1227.677;-55.22
1227.876;-55.13
1228.075;-55.02
1228.274;-54.89
1228.474;-54.76
1228.673;-54.69
1228.872;-54.59
1229.071;-54.48
1229.27;-54.41
1229.469;-54.34
1229.668;-54.3
1229.867;-54.23
1230.066;-54.21
1230.266;-54.2
1230.465;-54.18
1230.664;-54.21
1230.863;-54.24
1231.062;-54.31
1231.261;-54.38
1231.46;-54.45
1231.659;-54.54
1231.858;-54.63
1232.058;-54.72
1232.257;-54.79
1232.456;-54.87
1232.655;-54.95
1232.854;-54.96
1233.053;-54.97
1233.252;-54.96
1233.451;-54.92
1233.65;-54.85
1233.85;-54.71
1234.049;-54.6
1234.248;-54.43
1234.447;-54.22
1234.646;-54.04
1234.845;-53.84
1235.044;-53.63
1235.243;-53.41
1235.443;-53.19
1235.642;-53.02
1235.841;-52.82
1236.04;-52.65
1236.239;-52.48
1236.438;-52.35
1236.637;-52.24
1236.836;-52.11
1237.035;-52.04
1237.235;-51.96
1237.434;-51.89
1237.633;-51.85
1237.832;-51.82
1238.031;-51.81
1238.23;-51.78
1238.429;-51.76
1238.628;-51.77
1238.827;-51.75
1239.027;-51.74
1239.226;-51.71
1239.425;-51.68
1239.624;-51.65
1239.823;-51.58
1240.022;-51.53
1240.221;-51.45
1240.42;-51.35
1240.62;-51.24
1240.819;-51.12
1241.018;-51.0
1241.217;-50.85
1241.416;-50.71
1241.615;-50.58
1241.814;-50.44
1242.013;-50.31
1242.212;-50.19
1242.412;-50.09
1242.611;-49.98
1242.81;-49.87
1243.009;-49.8
1243.208;-49.73
1243.407;-49.66
1243.606;-49.59
1243.805;-49.54
1244.004;-49.5
1244.204;-49.43
1244.403;-49.4
1244.602;-49.36
1244.801;-49.31
1245.0;-49.27
1245.199;-49.24
1245.398;-49.21
1245.597;-49.16
1245.797;-49.12
1245.996;-49.1
1246.195;-49.07
1246.394;-49.05
1246.593;-49.02
1246.792;-49.02
1246.991;-49.0
1247.19;-48.98
1247.389;-48.97
1247.589;-48.93
1247.788;-48.89
1247.987;-48.85
1248.186;-48.79
1248.385;-48.71
1248.584;-48.6
1248.783;-48.49
1248.982;-48.38
1249.181;-48.22
1249.381;-48.07
1249.58;-47.89
1249.779;-47.72
1249.978;-47.53
1250.177;-47.34
1250.376;-47.16
1250.575;-46.95
1250.774;-46.75
1250.974;-46.57
1251.173;-46.35
1251.372;-46.15
1251.571;-45.93
1251.77;-45.66
1251.969;-45.43
1252.168;-45.16
1252.367;-44.86
1252.566;-44.53
1252.766;-44.18
1252.965;-43.79
1253.164;-43.38
1253.363;-42.94
1253.562;-42.49
1253.761;-42.03
1253.96;-41.56
1254.159;-41.09
1254.358;-40.63
1254.558;-40.18
1254.757;-39.75
1254.956;-39.32
1255.155;-38.93
1255.354;-38.56
1255.553;-38.2
1255.752;-37.89
1255.951;-37.58
1256.15;-37.32
1256.35;-37.06
1256.549;-36.85
1256.748;-36.67
1256.947;-36.5
1257.146;-36.37
1257.345;-36.26
1257.544;-36.19
1257.743;-36.15
1257.943;-36.12
1258.142;-36.14
1258.341;-36.16
1258.54;-36.22
1258.739;-36.3
1258.938;-36.38
1259.137;-36.51
1259.336;-36.63
1259.535;-36.78
1259.735;-36.94
1259.934;-37.09
1260.133;-37.27
1260.332;-37.43
1260.531;-37.6
1260.73;-37.76
1260.929;-37.88
1261.128;-38.0
1261.327;-38.06
1261.527;-38.09
1261.726;-38.06
1261.925;-37.95
1262.124;-37.77
1262.323;-37.5
1262.522;-37.18
1262.721;-36.78
1262.92;-36.32
1263.12;-35.73
1263.319;-35.28
1263.518;-34.77
1263.717;-34.2
1263.916;-33.65
1264.115;-33.1
1264.314;-32.57
1264.513;-32.08
1264.712;-31.59
1264.912;-31.14
1265.111;-30.72
1265.31;-30.33
1265.509;-30.0
1265.708;-29.68
1265.907;-29.41
1266.106;-29.18
1266.305;-28.98
1266.504;-28.85
1266.704;-28.72
1266.903;-28.65
1267.102;-28.6
1267.301;-28.59
1267.5;-28.63
1267.699;-28.68
1267.898;-28.76
1268.097;-28.86
1268.297;-28.98
1268.496;-29.14
1268.695;-29.27
1268.894;-29.42
1269.093;-29.56
1269.292;-29.7
1269.491;-29.85
1269.69;-29.95
1269.889;-30.06
1270.089;-30.14
1270.288;-30.22
1270.487;-30.31
1270.686;-30.37
1270.885;-30.46
1271.084;-30.55
1271.283;-30.66
1271.482;-30.82
1271.681;-30.99
1271.881;-31.24
1272.08;-31.51
1272.279;-31.85
1272.478;-32.25
1272.677;-32.68
1272.876;-33.16
1273.075;-33.61
1273.274;-34.04
1273.474;-34.34
1273.673;-34.45
1273.872;-34.33
1274.071;-33.91
1274.27;-33.28
1274.469;-32.48
1274.668;-31.6
1274.867;-30.7
1275.066;-29.82
1275.266;-28.99
1275.465;-28.21
1275.664;-27.5
1275.863;-26.87
1276.062;-26.3
1276.261;-25.72
1276.46;-25.37
1276.659;-25.01
1276.858;-24.71
1277.058;-24.48
1277.257;-24.31
1277.456;-24.19
1277.655;-24.15
1277.854;-24.15
1278.053;-24.21
1278.252;-24.32
1278.451;-24.47
1278.65;-24.67
1278.85;-24.87
1279.049;-25.11
1279.248;-25.33
1279.447;-25.53
1279.646;-25.69
1279.845;-25.76
1280.044;-25.74
1280.243;-25.59
1280.443;-25.34
1280.642;-24.99
1280.841;-24.56
1281.04;-24.1
1281.239;-23.59
1281.438;-23.1
1281.637;-22.63
1281.836;-22.18
1282.035;-21.78
1282.235;-21.41
1282.434;-21.1
1282.633;-20.86
1282.832;-20.66
1283.031;-20.53
1283.23;-20.45
1283.429;-20.43
1283.628;-20.48
1283.827;-20.6
1284.027;-20.8
1284.226;-21.06
1284.425;-21.42
1284.624;-21.86
1284.823;-22.4
1285.022;-23.06
1285.221;-23.84
1285.42;-24.76
1285.62;-25.84
1285.819;-27.1
1286.018;-28.85
1286.217;-30.11
1286.416;-31.51
1286.615;-32.25
1286.814;-31.86
1287.013;-30.55
1287.212;-28.96
1287.412;-27.44
1287.611;-25.86
1287.81;-24.91
1288.009;-23.91
1288.208;-23.06
1288.407;-22.33
1288.606;-21.72
1288.805;-21.22
1289.004;-20.8
1289.204;-20.49
1289.403;-20.23
1289.602;-20.05
1289.801;-19.96
1290.0;-19.91
1290.199;-19.96
1290.398;-20.04
1290.597;-20.21
1290.797;-20.44
1290.996;-20.72
1291.195;-21.1
1291.394;-21.52
1291.593;-22.04
1291.792;-22.64
1291.991;-23.33
1292.19;-24.14
1292.389;-25.05
1292.589;-26.09
1292.788;-27.29
1292.987;-28.97
1293.186;-30.2
1293.385;-31.77
1293.584;-33.12
1293.783;-33.73
1293.982;-33.25
1294.181;-31.97
1294.381;-30.45
1294.58;-28.95
1294.779;-27.62
1294.978;-26.45
1295.177;-25.25
1295.376;-24.54
1295.575;-23.74
1295.774;-23.07
1295.974;-22.47
1296.173;-21.96
1296.372;-21.53
1296.571;-21.15
1296.77;-20.85
1296.969;-20.61
1297.168;-20.43
1297.367;-20.32
1297.566;-20.25
1297.766;-20.26
1297.965;-20.32
1298.164;-20.45
1298.363;-20.65
1298.562;-20.9
1298.761;-21.26
1298.96;-21.67
1299.159;-22.18
1299.358;-22.79
1299.558;-23.47
1299.757;-24.27
1299.956;-25.14
1300.155;-26.07
1300.354;-26.98
1300.553;-27.71
1300.752;-28.15
1300.951;-27.97
1301.15;-27.35
1301.35;-26.4
1301.549;-25.15
1301.748;-24.23
1301.947;-23.22
1302.146;-22.29
1302.345;-21.44
1302.544;-20.7
1302.743;-20.04
1302.943;-19.47
1303.142;-18.97
1303.341;-18.55
1303.54;-18.2
1303.739;-17.89
1303.938;-17.66
1304.137;-17.47
1304.336;-17.34
1304.535;-17.24
1304.735;-17.18
1304.934;-17.18
1305.133;-17.19
1305.332;-17.23
1305.531;-17.29
1305.73;-17.37
1305.929;-17.46
1306.128;-17.54
1306.327;-17.64
1306.527;-17.72
1306.726;-17.78
1306.925;-17.83
1307.124;-17.86
1307.323;-17.88
1307.522;-17.86
1307.721;-17.84
1307.92;-17.81
1308.12;-17.79
1308.319;-17.77
1308.518;-17.75
1308.717;-17.75
1308.916;-17.76
1309.115;-17.81
1309.314;-17.9
1309.513;-18.01
1309.712;-18.17
1309.912;-18.36
1310.111;-18.61
1310.31;-18.91
1310.509;-19.26
1310.708;-19.68
1310.907;-20.14
1311.106;-20.7
1311.305;-21.31
1311.504;-21.99
1311.704;-22.75
1311.903;-23.53
1312.102;-24.37
1312.301;-25.2
1312.5;-25.99
1312.699;-26.64
1312.898;-27.05
1313.097;-27.17
1313.297;-26.97
1313.496;-26.57
1313.695;-26.01
1313.894;-25.38
1314.093;-24.77
1314.292;-24.16
1314.491;-23.62
1314.69;-23.14
1314.889;-22.71
1315.089;-22.35
1315.288;-22.04
1315.487;-21.81
1315.686;-21.6
1315.885;-21.45
1316.084;-21.36
1316.283;-21.29
1316.482;-21.28
1316.681;-21.28
1316.881;-21.31
1317.08;-21.39
1317.279;-21.48
1317.478;-21.61
1317.677;-21.73
1317.876;-21.89
1318.075;-22.05
1318.274;-22.23
1318.474;-22.43
1318.673;-22.64
1318.872;-22.88
1319.071;-23.12
1319.27;-23.37
1319.469;-23.65
1319.668;-23.94
1319.867;-24.26
1320.066;-24.58
1320.266;-24.93
1320.465;-25.3
1320.664;-25.7
1320.863;-26.13
1321.062;-26.56
1321.261;-27.03
1321.46;-27.5
1321.659;-28.0
1321.858;-28.61
1322.058;-29.04
1322.257;-29.57
1322.456;-30.11
1322.655;-30.65
1322.854;-31.17
1323.053;-31.7
1323.252;-32.24
1323.451;-32.77
1323.65;-33.32
1323.85;-33.88
1324.049;-34.49
1324.248;-35.13
1324.447;-35.82
1324.646;-36.6
1324.845;-37.44
1325.044;-38.36
1325.243;-39.53
1325.443;-40.24
1325.642;-40.91
1325.841;-41.11
1326.04;-40.75
1326.239;-39.88
1326.438;-38.76
1326.637;-37.54
1326.836;-36.37
1327.035;-35.12
1327.235;-34.3
1327.434;-33.45
1327.633;-32.66
1327.832;-31.99
1328.031;-31.39
1328.23;-30.87
1328.429;-30.43
1328.628;-30.04
1328.827;-29.72
1329.027;-29.45
1329.226;-29.22
1329.425;-29.06
1329.624;-28.9
1329.823;-28.81
1330.022;-28.73
1330.221;-28.68
1330.42;-28.67
1330.62;-28.65
1330.819;-28.68
1331.018;-28.7
1331.217;-28.75
1331.416;-28.8
1331.615;-28.85
1331.814;-28.92
1332.013;-28.98
1332.212;-29.07
1332.412;-29.15
1332.611;-29.26
1332.81;-29.38
1333.009;-29.51
1333.208;-29.67
1333.407;-29.85
1333.606;-30.06
1333.805;-30.31
1334.004;-30.6
1334.204;-30.95
1334.403;-31.32
1334.602;-31.78
1334.801;-32.28
1335.0;-32.86
1335.199;-33.53
1335.398;-34.28
1335.597;-35.16
1335.797;-36.15
1335.996;-37.3
1336.195;-38.92
1336.394;-40.19
1336.593;-41.97
1336.792;-43.99
1336.991;-46.05
1337.19;-47.38
1337.389;-47.13
1337.589;-45.61
1337.788;-43.84
1337.987;-42.23
1338.186;-40.88
1338.385;-39.78
1338.584;-38.87
1338.783;-38.15
1338.982;-37.56
1339.181;-37.12
1339.381;-36.79
1339.58;-36.56
1339.779;-36.44
1339.978;-36.4
1340.177;-36.46
1340.376;-36.6
1340.575;-36.84
1340.774;-37.16
1340.974;-37.54
1341.173;-38.05
1341.372;-38.63
1341.571;-39.33
1341.77;-40.16
1341.969;-41.1
1342.168;-42.21
1342.367;-43.48
1342.566;-44.97
1342.766;-46.73
1342.965;-49.21
1343.164;-50.96
1343.363;-52.81
1343.562;-53.35
1343.761;-52.27
1343.96;-50.57
1344.159;-48.91
1344.358;-47.52
1344.558;-46.41
1344.757;-45.34
1344.956;-44.79
1345.155;-44.21
1345.354;-43.8
1345.553;-43.49
1345.752;-43.3
1345.951;-43.22
1346.15;-43.21
1346.35;-43.3
1346.549;-43.46
1346.748;-43.69
1346.947;-44.0
1347.146;-44.36
1347.345;-44.8
1347.544;-45.34
1347.743;-45.97
1347.943;-46.65
1348.142;-47.37
1348.341;-48.18
1348.54;-49.17
1348.739;-49.91
1348.938;-50.85
1349.137;-51.84
1349.336;-52.83
1349.535;-53.81
1349.735;-54.72
1349.934;-55.51
1350.133;-56.15
1350.332;-56.59
1350.531;-56.77
1350.73;-56.72
1350.929;-56.47
1351.128;-56.11
1351.327;-55.73
1351.527;-55.34
1351.726;-55.0
1351.925;-54.58
1352.124;-54.16
1352.323;-53.76
1352.522;-53.4
1352.721;-52.97
1352.92;-52.56
1353.12;-52.3
1353.319;-51.88
1353.518;-51.56
1353.717;-51.27
1353.916;-50.95
1354.115;-50.71
1354.314;-50.58
1354.513;-50.47
1354.712;-50.5
1354.912;-50.56
1355.111;-50.54
1355.31;-50.52
1355.509;-50.43
1355.708;-50.63
1355.907;-50.9
1356.106;-51.09
1356.305;-51.26
1356.504;-51.49
1356.704;-51.54
1356.903;-51.86
1357.102;-52.4
1357.301;-52.86
1357.5;-53.26
1357.699;-53.66
1357.898;-53.9
1358.097;-54.09
1358.297;-54.36
1358.496;-54.6
1358.695;-54.7
1358.894;-54.73
1359.093;-54.7
1359.292;-54.54
1359.491;-54.68
1359.69;-54.74
1359.889;-54.64
1360.089;-54.48
1360.288;-54.29
1360.487;-54.13
1360.686;-54.17
1360.885;-54.44
1361.084;-54.71
1361.283;-54.92
1361.482;-55.2
1361.681;-55.57
1361.881;-55.95
1362.08;-56.51
1362.279;-57.32
1362.478;-58.04
1362.677;-59.11
1362.876;-59.58
1363.075;-60.49
1363.274;-61.1
1363.474;-62.34
1363.673;-63.73
1363.872;-65.29
1364.071;-66.89
1364.27;-68.15
1364.469;-68.78
1364.668;-68.73
1364.867;-67.51
1365.066;-65.94
1365.266;-64.86
1365.465;-63.8
1365.664;-62.87
1365.863;-62.05
1366.062;-61.38
1366.261;-60.82
1366.46;-60.46
1366.659;-60.25
1366.858;-60.22
1367.058;-60.16
1367.257;-60.15
1367.456;-60.34
1367.655;-60.55
1367.854;-60.91
1368.053;-61.17
1368.252;-61.36
1368.451;-61.92
1368.65;-62.31
1368.85;-62.75
1369.049;-63.15
1369.248;-63.52
1369.447;-63.87
1369.646;-64.37
1369.845;-65.11
1370.044;-65.76
1370.243;-66.36
1370.443;-66.95
1370.642;-67.23
1370.841;-67.8
1371.04;-68.35
1371.239;-68.82
1371.438;-68.94
1371.637;-69.11
1371.836;-69.21
1372.035;-69.45
1372.235;-69.84
1372.434;-70.16
1372.633;-70.35
1372.832;-70.57
1373.031;-70.8
1373.23;-71.05
1373.429;-71.37
1373.628;-71.31
1373.827;-71.64
1374.027;-71.55
1374.226;-71.55
1374.425;-71.47
1374.624;-71.34
1374.823;-71.19
1375.022;-70.88
1375.221;-70.56
1375.42;-70.33
1375.62;-69.89
1375.819;-69.8
1376.018;-69.49
1376.217;-69.35
1376.416;-69.27
1376.615;-69.16
1376.814;-69.07
1377.013;-69.14
1377.212;-69.22
1377.412;-69.2
1377.611;-69.26
1377.81;-69.21
1378.009;-69.27
1378.208;-69.32
1378.407;-69.55
1378.606;-69.76
1378.805;-69.99
1379.004;-70.26
1379.204;-70.16
1379.403;-70.35
1379.602;-70.37
1379.801;-70.52
1380.0;-70.59
1380.199;-70.79
1380.398;-70.88
1380.597;-71.45
1380.797;-71.74
1380.996;-71.94
1381.195;-72.06
1381.394;-71.75
1381.593;-71.4
1381.792;-71.34
1381.991;-71.14
1382.19;-71.43
1382.389;-71.76
1382.589;-72.35
1382.788;-72.62
1382.987;-72.91
1383.186;-72.83
1383.385;-72.55
1383.584;-72.35
1383.783;-72.72
1383.982;-72.99
1384.181;-73.11
1384.381;-73.15
1384.58;-73.06
1384.779;-73.24
1384.978;-73.46
1385.177;-73.6
1385.376;-73.75
1385.575;-73.54
1385.774;-73.8
1385.974;-73.8
1386.173;-74.07
1386.372;-73.86
1386.571;-73.95
1386.77;-73.67
1386.969;-74.08
1387.168;-73.97
1387.367;-74.15
1387.566;-74.4
1387.766;-74.92
1387.965;-76.0
1388.164;-75.83
1388.363;-76.6
1388.562;-76.25
1388.761;-76.38
1388.96;-76.48
1389.159;-76.61
1389.358;-77.06
1389.558;-77.68
1389.757;-78.06
1389.956;-77.59
1390.155;-78.44
1390.354;-78.6
1390.553;-78.98
1390.752;-79.49
1390.951;-78.52
1391.15;-79.95
1391.35;-81.99
1391.549;-80.84
1391.748;-80.75
1391.947;-80.48
1392.146;-80.84
1392.345;-80.24
1392.544;-79.96
1392.743;-81.28
1392.943;-79.6
1393.142;-80.57
1393.341;-79.92
1393.54;-80.48
1393.739;-80.0
1393.938;-79.36
1394.137;-80.32
1394.336;-79.89
1394.535;-78.96
1394.735;-80.7
1394.934;-80.48
1395.133;-80.7
1395.332;-80.4
1395.531;-81.08
1395.73;-81.22
1395.929;-83.58
1396.128;-80.4
1396.327;-80.16
1396.527;-81.82
1396.726;-81.08
1396.925;-80.66
1397.124;-79.64
1397.323;-80.57
1397.522;-80.28
1397.721;-79.89
1397.92;-81.12
1398.12;-81.22
1398.319;-80.84
1398.518;-80.94
1398.717;-80.37
1398.916;-82.95
1399.115;-81.13
1399.314;-80.67
1399.513;-81.23
1399.712;-81.66
1399.912;-82.25
1400.111;-80.71
1400.31;-79.47
1400.509;-80.09
1400.708;-80.37
1400.907;-83.18
1401.106;-83.42
1401.305;-82.87
1401.504;-80.85
1401.704;-80.58
1401.903;-80.76
1402.102;-81.04
1402.301;-80.58
1402.5;-84.35
1402.699;-83.34
1402.898;-81.77
1403.097;-82.87
1403.297;-81.77
1403.496;-81.66
1403.695;-82.95
1403.894;-82.38
1404.093;-82.52
1404.292;-81.71
1404.491;-80.54
1404.69;-82.87
1404.889;-84.05
1405.089;-82.52
1405.288;-87.79
1405.487;-81.18
1405.686;-85.53
1405.885;-83.02
1406.084;-82.38
1406.283;-82.95
1406.482;-81.77
1406.681;-83.35
1406.881;-80.9
1407.08;-82.26
1407.279;-82.39
1407.478;-82.96
1407.677;-82.26
1407.876;-80.77
1408.075;-82.14
1408.274;-81.56
1408.474;-82.46
1408.673;-82.14
1408.872;-80.22
1409.071;-80.86
1409.27;-81.0
1409.469;-82.08
1409.668;-81.67
1409.867;-83.19
1410.066;-87.8
1410.266;-82.46
1410.465;-82.53
1410.664;-80.63
1410.863;-81.45
1411.062;-81.56
1411.261;-81.9
1411.46;-81.19
1411.659;-81.4
1411.858;-82.33
1412.058;-81.05
1412.257;-80.59
1412.456;-80.68
1412.655;-83.78
1412.854;-80.59
1413.053;-82.26
1413.252;-82.33
1413.451;-82.39
1413.65;-80.56
1413.85;-79.74
1414.049;-80.69
1414.248;-81.15
1414.447;-81.79
1414.646;-82.4
1414.845;-81.01
1415.044;-84.07
1415.243;-81.97
1415.443;-82.4
1415.642;-80.03
1415.841;-83.12
1416.04;-82.03
1416.239;-82.4
1416.438;-80.78
1416.637;-80.78
1416.836;-80.96
1417.035;-80.56
1417.235;-80.19
1417.434;-83.28
1417.633;-82.75
1417.832;-80.73
1418.031;-79.99
1418.23;-80.69
1418.429;-81.73
1418.628;-81.79
1418.827;-82.82
1419.027;-80.31
1419.226;-79.39
1419.425;-80.96
1419.624;-82.21
1419.823;-80.69
1420.022;-80.78
1420.221;-80.35
1420.42;-80.35
1420.62;-81.41
1420.819;-80.43
1421.018;-81.11
1421.217;-79.88
1421.416;-80.39
1421.615;-81.26
1421.814;-81.92
1422.013;-80.61
1422.212;-80.28
1422.412;-79.18
1422.611;-78.91
1422.81;-81.58
1423.009;-82.9
1423.208;-83.89
1423.407;-79.85
1423.606;-80.36
1423.805;-79.5
1424.004;-80.24
1424.204;-80.79
1424.403;-81.02
1424.602;-81.74
1424.801;-80.4
1425.0;-80.97
