Wavelength (nm);Intensity (dBm)
1131.0;1131.0
1200.0;-61.24
1200.199;-61.21
1200.398;-61.16
1200.597;-61.17
1200.797;-61.17
1200.996;-61.08
1201.195;-61.04
1201.394;-61.0
1201.593;-60.96
1201.792;-60.87
1201.991;-60.82
1202.19;-60.77
1202.389;-60.68
1202.589;-60.62
1202.788;-60.57
1202.987;-60.52
1203.186;-60.48
1203.385;-60.41
1203.584;-60.38
1203.783;-60.33
1203.982;-60.3
1204.181;-60.25
1204.381;-60.2
1204.58;-60.2
1204.779;-60.17
1204.978;-60.13
1205.177;-60.13
1205.376;-60.08
1205.575;-60.09
1205.774;-60.1
1205.974;-60.08
1206.173;-60.05
1206.372;-60.07
1206.571;-60.08
1206.77;-60.06
1206.969;-60.03
1207.168;-60.06
1207.367;-60.08
1207.566;-60.07
1207.766;-60.05
1207.965;-60.06
1208.164;-60.07
1208.363;-60.05
1208.562;-60.03
1208.761;-59.97
1208.96;-59.98
1209.159;-59.97
1209.358;-59.89
1209.558;-59.83
1209.757;-59.79
1209.956;-59.74
1210.155;-59.68
1210.354;-59.58
1210.553;-59.53
1210.752;-59.5
1210.951;-59.41
1211.15;-59.31
1211.35;-59.24
1211.549;-59.22
1211.748;-59.13
1211.947;-59.03
1212.146;-58.96
1212.345;-58.91
1212.544;-58.88
1212.743;-58.8
1212.943;-58.71
1213.142;-58.68
1213.341;-58.66
1213.54;-58.59
1213.739;-58.53
1213.938;-58.5
1214.137;-58.49
1214.336;-58.41
1214.535;-58.35
1214.735;-58.32
1214.934;-58.29
1215.133;-58.25
1215.332;-58.15
1215.531;-58.12
1215.73;-58.09
1215.929;-58.04
1216.128;-57.96
1216.327;-57.88
1216.527;-57.86
1216.726;-57.8
1216.925;-57.7
1217.124;-57.64
1217.323;-57.61
1217.522;-57.57
1217.721;-57.48
1217.92;-57.41
1218.12;-57.39
1218.319;-57.35
1218.518;-57.3
1218.717;-57.24
1218.916;-57.23
1219.115;-57.22
1219.314;-57.17
1219.513;-57.16
1219.712;-57.17
1219.912;-57.19
1220.111;-57.19
1220.31;-57.19
1220.509;-57.23
1220.708;-57.27
1220.907;-57.28
1221.106;-57.3
1221.305;-57.34
1221.504;-57.39
1221.704;-57.42
1221.903;-57.44
1222.102;-57.46
1222.301;-57.49
1222.5;-57.5
1222.699;-57.47
1222.898;-57.47
1223.097;-57.48
1223.297;-57.44
1223.496;-57.39
1223.695;-57.35
1223.894;-57.32
1224.093;-57.26
1224.292;-57.19
1224.491;-57.13
1224.69;-57.09
1224.889;-57.03
1225.089;-56.97
1225.288;-56.9
1225.487;-56.86
1225.686;-56.82
1225.885;-56.76
1226.084;-56.71
1226.283;-56.67
1226.482;-56.62
1226.681;-56.54
1226.881;-56.47
1227.08;-56.41
1227.279;-56.32
1227.478;-56.21
1227.677;-56.1
1227.876;-55.98
1228.075;-55.84
1228.274;-55.62
1228.474;-55.48
1228.673;-55.32
1228.872;-55.14
1229.071;-54.93
1229.27;-54.73
1229.469;-54.55
1229.668;-54.36
1229.867;-54.17
1230.066;-54.0
1230.266;-53.84
1230.465;-53.7
1230.664;-53.55
1230.863;-53.46
1231.062;-53.38
1231.261;-53.32
1231.46;-53.29
1231.659;-53.26
1231.858;-53.28
1232.058;-53.3
1232.257;-53.31
1232.456;-53.38
1232.655;-53.45
1232.854;-53.51
1233.053;-53.58
1233.252;-53.65
1233.451;-53.75
1233.65;-53.81
1233.85;-53.86
1234.049;-53.92
1234.248;-53.94
1234.447;-53.94
1234.646;-53.91
1234.845;-53.89
1235.044;-53.81
1235.243;-53.69
1235.443;-53.58
1235.642;-53.45
1235.841;-53.29
1236.04;-53.11
1236.239;-52.93
1236.438;-52.76
1236.637;-52.58
1236.836;-52.39
1237.035;-52.24
1237.235;-52.09
1237.434;-51.95
1237.633;-51.81
1237.832;-51.72
1238.031;-51.62
1238.23;-51.53
1238.429;-51.46
1238.628;-51.42
1238.827;-51.37
1239.027;-51.32
1239.226;-51.29
1239.425;-51.27
1239.624;-51.24
1239.823;-51.2
1240.022;-51.17
1240.221;-51.13
1240.42;-51.06
1240.62;-50.98
1240.819;-50.91
1241.018;-50.8
1241.217;-50.68
1241.416;-50.54
1241.615;-50.39
1241.814;-50.25
1242.013;-50.07
1242.212;-49.9
1242.412;-49.74
1242.611;-49.55
1242.81;-49.37
1243.009;-49.18
1243.208;-49.03
1243.407;-48.86
1243.606;-48.69
1243.805;-48.57
1244.004;-48.43
1244.204;-48.31
1244.403;-48.21
1244.602;-48.12
1244.801;-48.05
1245.0;-47.97
1245.199;-47.93
1245.398;-47.89
1245.597;-47.82
1245.797;-47.79
1245.996;-47.73
1246.195;-47.68
1246.394;-47.61
1246.593;-47.52
1246.792;-47.43
1246.991;-47.29
1247.19;-47.14
1247.389;-46.98
1247.589;-46.77
1247.788;-46.55
1247.987;-46.29
1248.186;-46.05
1248.385;-45.74
1248.584;-45.5
1248.783;-45.23
1248.982;-44.95
1249.181;-44.69
1249.381;-44.42
1249.58;-44.16
1249.779;-43.92
1249.978;-43.66
1250.177;-43.45
1250.376;-43.23
1250.575;-43.01
1250.774;-42.8
1250.974;-42.61
1251.173;-42.42
1251.372;-42.2
1251.571;-42.01
1251.77;-41.8
1251.969;-41.58
1252.168;-41.36
1252.367;-41.13
1252.566;-40.91
1252.766;-40.66
1252.965;-40.44
1253.164;-40.22
1253.363;-39.98
1253.562;-39.78
1253.761;-39.57
1253.96;-39.39
1254.159;-39.23
1254.358;-39.08
1254.558;-38.99
1254.757;-38.9
1254.956;-38.86
1255.155;-38.87
1255.354;-38.9
1255.553;-38.99
1255.752;-39.1
1255.951;-39.27
1256.15;-39.49
1256.35;-39.74
1256.549;-40.06
1256.748;-40.38
1256.947;-40.75
1257.146;-41.13
1257.345;-41.51
1257.544;-41.88
1257.743;-42.16
1257.943;-42.36
1258.142;-42.43
1258.341;-42.32
1258.54;-42.09
1258.739;-41.69
1258.938;-41.2
1259.137;-40.64
1259.336;-40.05
1259.535;-39.49
1259.735;-38.91
1259.934;-38.37
1260.133;-37.88
1260.332;-37.42
1260.531;-37.04
1260.73;-36.67
1260.929;-36.37
1261.128;-36.09
1261.327;-35.84
1261.527;-35.69
1261.726;-35.54
1261.925;-35.42
1262.124;-35.31
1262.323;-35.22
1262.522;-35.13
1262.721;-35.04
1262.92;-34.93
1263.12;-34.8
1263.319;-34.65
1263.518;-34.46
1263.717;-34.23
1263.916;-33.97
1264.115;-33.67
1264.314;-33.36
1264.513;-33.02
1264.712;-32.67
1264.912;-32.31
1265.111;-31.95
1265.31;-31.61
1265.509;-31.28
1265.708;-30.96
1265.907;-30.66
1266.106;-30.38
1266.305;-30.13
1266.504;-29.9
1266.704;-29.69
1266.903;-29.5
1267.102;-29.32
1267.301;-29.18
1267.5;-29.05
1267.699;-28.93
1267.898;-28.82
1268.097;-28.72
1268.297;-28.64
1268.496;-28.54
1268.695;-28.45
1268.894;-28.36
1269.093;-28.27
1269.292;-28.19
1269.491;-28.1
1269.69;-28.02
1269.889;-27.93
1270.089;-27.85
1270.288;-27.81
1270.487;-27.76
1270.686;-27.73
1270.885;-27.71
1271.084;-27.72
1271.283;-27.76
1271.482;-27.81
1271.681;-27.91
1271.881;-28.03
1272.08;-28.18
1272.279;-28.37
1272.478;-28.58
1272.677;-28.83
1272.876;-29.07
1273.075;-29.34
1273.274;-29.61
1273.474;-29.84
1273.673;-30.05
1273.872;-30.18
1274.071;-30.23
1274.27;-30.17
1274.469;-30.0
1274.668;-29.74
1274.867;-29.36
1275.066;-28.93
1275.266;-28.43
1275.465;-27.92
1275.664;-27.4
1275.863;-26.87
1276.062;-26.37
1276.261;-25.8
1276.46;-25.43
1276.659;-24.99
1276.858;-24.59
1277.058;-24.23
1277.257;-23.89
1277.456;-23.6
1277.655;-23.32
1277.854;-23.09
1278.053;-22.87
1278.252;-22.68
1278.451;-22.54
1278.65;-22.4
1278.85;-22.3
1279.049;-22.22
1279.248;-22.16
1279.447;-22.14
1279.646;-22.11
1279.845;-22.12
1280.044;-22.15
1280.243;-22.2
1280.443;-22.28
1280.642;-22.35
1280.841;-22.46
1281.04;-22.57
1281.239;-22.71
1281.438;-22.87
1281.637;-23.02
1281.836;-23.2
1282.035;-23.38
1282.235;-23.57
1282.434;-23.76
1282.633;-23.95
1282.832;-24.14
1283.031;-24.3
1283.23;-24.45
1283.429;-24.58
1283.628;-24.67
1283.827;-24.75
1284.027;-24.76
1284.226;-24.76
1284.425;-24.72
1284.624;-24.64
1284.823;-24.56
1285.022;-24.43
1285.221;-24.28
1285.42;-24.12
1285.62;-23.95
1285.819;-23.8
1286.018;-23.62
1286.217;-23.45
1286.416;-23.27
1286.615;-23.1
1286.814;-22.93
1287.013;-22.74
1287.212;-22.56
1287.412;-22.35
1287.611;-22.14
1287.81;-21.93
1288.009;-21.69
1288.208;-21.45
1288.407;-21.19
1288.606;-20.92
1288.805;-20.66
1289.004;-20.38
1289.204;-20.12
1289.403;-19.84
1289.602;-19.59
1289.801;-19.35
1290.0;-19.12
1290.199;-18.92
1290.398;-18.73
1290.597;-18.58
1290.797;-18.45
1290.996;-18.32
1291.195;-18.26
1291.394;-18.21
1291.593;-18.2
1291.792;-18.22
1291.991;-18.28
1292.19;-18.39
1292.389;-18.51
1292.589;-18.68
1292.788;-18.88
1292.987;-19.12
1293.186;-19.4
1293.385;-19.7
1293.584;-20.03
1293.783;-20.38
1293.982;-20.76
1294.181;-21.16
1294.381;-21.56
1294.58;-21.97
1294.779;-22.36
1294.978;-22.77
1295.177;-23.14
1295.376;-23.51
1295.575;-23.85
1295.774;-24.18
1295.974;-24.51
1296.173;-24.82
1296.372;-25.17
1296.571;-25.52
1296.77;-25.91
1296.969;-26.36
1297.168;-26.85
1297.367;-27.43
1297.566;-28.03
1297.766;-28.86
1297.965;-29.4
1298.164;-30.0
1298.363;-30.4
1298.562;-30.42
1298.761;-30.02
1298.96;-29.22
1299.159;-28.18
1299.358;-27.05
1299.558;-25.72
1299.757;-24.84
1299.956;-23.84
1300.155;-22.95
1300.354;-22.13
1300.553;-21.39
1300.752;-20.73
1300.951;-20.15
1301.15;-19.67
1301.35;-19.23
1301.549;-18.88
1301.748;-18.58
1301.947;-18.33
1302.146;-18.17
1302.345;-18.03
1302.544;-17.97
1302.743;-17.94
1302.943;-17.97
1303.142;-18.06
1303.341;-18.18
1303.54;-18.37
1303.739;-18.57
1303.938;-18.82
1304.137;-19.11
1304.336;-19.4
1304.535;-19.74
1304.735;-20.04
1304.934;-20.34
1305.133;-20.62
1305.332;-20.85
1305.531;-21.04
1305.73;-21.13
1305.929;-21.18
1306.128;-21.17
1306.327;-21.09
1306.527;-21.02
1306.726;-20.89
1306.925;-20.77
1307.124;-20.67
1307.323;-20.59
1307.522;-20.56
1307.721;-20.56
1307.92;-20.62
1308.12;-20.75
1308.319;-20.93
1308.518;-21.21
1308.717;-21.54
1308.916;-21.98
1309.115;-22.51
1309.314;-23.15
1309.513;-23.93
1309.712;-24.83
1309.912;-25.92
1310.111;-27.18
1310.31;-29.01
1310.509;-30.37
1310.708;-32.11
1310.907;-33.41
1311.106;-33.46
1311.305;-32.23
1311.504;-30.5
1311.704;-28.79
1311.903;-27.28
1312.102;-25.79
1312.301;-24.89
1312.5;-23.98
1312.699;-23.18
1312.898;-22.5
1313.097;-21.94
1313.297;-21.44
1313.496;-21.05
1313.695;-20.71
1313.894;-20.42
1314.093;-20.21
1314.292;-20.02
1314.491;-19.9
1314.69;-19.78
1314.889;-19.71
1315.089;-19.66
1315.288;-19.63
1315.487;-19.64
1315.686;-19.64
1315.885;-19.66
1316.084;-19.68
1316.283;-19.71
1316.482;-19.77
1316.681;-19.81
1316.881;-19.87
1317.08;-19.94
1317.279;-20.01
1317.478;-20.1
1317.677;-20.18
1317.876;-20.29
1318.075;-20.39
1318.274;-20.52
1318.474;-20.67
1318.673;-20.84
1318.872;-21.04
1319.071;-21.25
1319.27;-21.48
1319.469;-21.73
1319.668;-22.01
1319.867;-22.32
1320.066;-22.62
1320.266;-22.96
1320.465;-23.3
1320.664;-23.67
1320.863;-24.04
1321.062;-24.4
1321.261;-24.79
1321.46;-25.14
1321.659;-25.5
1321.858;-25.83
1322.058;-26.13
1322.257;-26.43
1322.456;-26.66
1322.655;-26.89
1322.854;-27.06
1323.053;-27.21
1323.252;-27.33
1323.451;-27.4
1323.65;-27.46
1323.85;-27.48
1324.049;-27.46
1324.248;-27.44
1324.447;-27.37
1324.646;-27.3
1324.845;-27.18
1325.044;-27.07
1325.243;-26.94
1325.443;-26.8
1325.642;-26.67
1325.841;-26.51
1326.04;-26.37
1326.239;-26.22
1326.438;-26.09
1326.637;-25.98
1326.836;-25.87
1327.035;-25.8
1327.235;-25.72
1327.434;-25.67
1327.633;-25.66
1327.832;-25.66
1328.031;-25.69
1328.23;-25.73
1328.429;-25.81
1328.628;-25.89
1328.827;-26.0
1329.027;-26.14
1329.226;-26.27
1329.425;-26.44
1329.624;-26.6
1329.823;-26.78
1330.022;-26.97
1330.221;-27.16
1330.42;-27.37
1330.62;-27.55
1330.819;-27.76
1331.018;-27.97
1331.217;-28.18
1331.416;-28.4
1331.615;-28.67
1331.814;-28.87
1332.013;-29.1
1332.212;-29.37
1332.412;-29.65
1332.611;-29.97
1332.81;-30.31
1333.009;-30.68
1333.208;-31.09
1333.407;-31.53
1333.606;-32.02
1333.805;-32.55
1334.004;-33.12
1334.204;-33.74
1334.403;-34.38
1334.602;-35.05
1334.801;-35.71
1335.0;-36.34
1335.199;-36.89
1335.398;-37.31
1335.597;-37.59
1335.797;-37.68
1335.996;-37.6
1336.195;-37.38
1336.394;-37.06
1336.593;-36.71
1336.792;-36.33
1336.991;-35.99
1337.19;-35.67
1337.389;-35.41
1337.589;-35.21
1337.788;-35.07
1337.987;-35.0
1338.186;-34.99
1338.385;-35.06
1338.584;-35.19
1338.783;-35.39
1338.982;-35.68
1339.181;-36.04
1339.381;-36.5
1339.58;-37.03
1339.779;-37.66
1339.978;-38.56
1340.177;-39.28
1340.376;-40.27
1340.575;-41.41
1340.774;-42.71
1340.974;-44.12
1341.173;-45.67
1341.372;-47.16
1341.571;-48.25
1341.77;-48.56
1341.969;-47.95
1342.168;-46.84
1342.367;-45.37
1342.566;-44.47
1342.766;-43.46
1342.965;-42.63
1343.164;-41.91
1343.363;-41.34
1343.562;-40.88
1343.761;-40.52
1343.96;-40.28
1344.159;-40.1
1344.358;-40.01
1344.558;-39.98
1344.757;-40.02
1344.956;-40.13
1345.155;-40.27
1345.354;-40.48
1345.553;-40.73
1345.752;-41.03
1345.951;-41.38
1346.15;-41.75
1346.35;-42.16
1346.549;-42.59
1346.748;-43.02
1346.947;-43.47
1347.146;-43.89
1347.345;-44.32
1347.544;-44.75
1347.743;-45.18
1347.943;-45.56
1348.142;-45.88
1348.341;-46.2
1348.54;-46.43
1348.739;-46.69
1348.938;-46.92
1349.137;-47.15
1349.336;-47.39
1349.535;-47.64
1349.735;-47.92
1349.934;-48.21
1350.133;-48.66
1350.332;-48.99
1350.531;-49.39
1350.73;-49.77
1350.929;-50.14
1351.128;-50.47
1351.327;-50.78
1351.527;-51.09
1351.726;-51.38
1351.925;-51.56
1352.124;-51.66
1352.323;-51.67
1352.522;-51.65
1352.721;-51.51
1352.92;-51.34
1353.12;-51.27
1353.319;-51.03
1353.518;-50.87
1353.717;-50.73
1353.916;-50.56
1354.115;-50.45
1354.314;-50.45
1354.513;-50.46
1354.712;-50.61
1354.912;-50.78
1355.111;-50.86
1355.31;-50.94
1355.509;-50.89
1355.708;-51.13
1355.907;-51.41
1356.106;-51.57
1356.305;-51.67
1356.504;-51.78
1356.704;-51.7
1356.903;-51.83
1357.102;-52.16
1357.301;-52.35
1357.5;-52.45
1357.699;-52.56
1357.898;-52.52
1358.097;-52.49
1358.297;-52.59
1358.496;-52.73
1358.695;-52.81
1358.894;-52.91
1359.093;-53.06
1359.292;-53.12
1359.491;-53.54
1359.69;-53.96
1359.889;-54.32
1360.089;-54.63
1360.288;-54.94
1360.487;-55.26
1360.686;-55.83
1360.885;-56.65
1361.084;-57.55
1361.283;-58.66
1361.482;-59.51
1361.681;-60.51
1361.881;-61.63
1362.08;-62.85
1362.279;-64.25
1362.478;-65.13
1362.677;-65.52
1362.876;-65.1
1363.075;-64.26
1363.274;-63.14
1363.474;-62.25
1363.673;-61.36
1363.872;-60.63
1364.071;-60.07
1364.27;-59.59
1364.469;-59.32
1364.668;-59.35
1364.867;-59.12
1365.066;-58.73
1365.266;-58.66
1365.465;-58.45
1365.664;-58.4
1365.863;-58.39
1366.062;-58.39
1366.261;-58.42
1366.46;-58.57
1366.659;-58.87
1366.858;-59.27
1367.058;-59.59
1367.257;-59.9
1367.456;-60.35
1367.655;-60.71
1367.854;-61.19
1368.053;-61.47
1368.252;-61.55
1368.451;-61.96
1368.65;-62.07
1368.85;-62.18
1369.049;-62.12
1369.248;-61.98
1369.447;-61.82
1369.646;-61.81
1369.845;-62.05
1370.044;-62.14
1370.243;-62.2
1370.443;-62.22
1370.642;-62.18
1370.841;-62.54
1371.04;-62.85
1371.239;-63.11
1371.438;-63.3
1371.637;-63.41
1371.836;-63.61
1372.035;-64.09
1372.235;-64.61
1372.434;-65.16
1372.633;-65.67
1372.832;-66.14
1373.031;-66.53
1373.23;-67.23
1373.429;-68.04
1373.628;-68.74
1373.827;-69.37
1374.027;-70.09
1374.226;-70.64
1374.425;-71.55
1374.624;-72.33
1374.823;-72.72
1375.022;-73.51
1375.221;-73.99
1375.42;-74.25
1375.62;-75.11
1375.819;-74.9
1376.018;-75.61
1376.217;-76.46
1376.416;-76.72
1376.615;-76.47
1376.814;-77.01
1377.013;-77.03
1377.212;-76.78
1377.412;-77.35
1377.611;-76.59
1377.81;-76.19
1378.009;-76.37
1378.208;-76.03
1378.407;-75.66
1378.606;-75.36
1378.805;-75.97
1379.004;-75.39
1379.204;-74.63
1379.403;-74.22
1379.602;-73.81
1379.801;-73.76
1380.0;-73.61
1380.199;-73.63
1380.398;-73.66
1380.597;-73.87
1380.797;-74.38
1380.996;-74.3
1381.195;-74.53
1381.394;-73.89
1381.593;-74.19
1381.792;-73.87
1381.991;-74.39
1382.19;-74.3
1382.389;-74.96
1382.589;-75.17
1382.788;-75.9
1382.987;-75.78
1383.186;-75.75
1383.385;-75.62
1383.584;-75.64
1383.783;-76.2
1383.982;-75.81
1384.181;-76.38
1384.381;-76.12
1384.58;-75.58
1384.779;-75.55
1384.978;-75.26
1385.177;-76.1
1385.376;-76.04
1385.575;-76.26
1385.774;-76.7
1385.974;-76.18
1386.173;-76.21
1386.372;-76.2
1386.571;-75.76
1386.77;-75.36
1386.969;-76.44
1387.168;-75.56
1387.367;-75.97
1387.566;-76.07
1387.766;-76.65
1387.965;-77.12
1388.164;-76.83
1388.363;-77.24
1388.562;-76.48
1388.761;-76.94
1388.96;-76.29
1389.159;-76.85
1389.358;-77.06
1389.558;-76.48
1389.757;-76.33
1389.956;-76.63
1390.155;-76.28
1390.354;-76.18
1390.553;-76.69
1390.752;-76.06
1390.951;-76.34
1391.15;-76.67
1391.35;-76.83
1391.549;-76.73
1391.748;-76.91
1391.947;-76.16
1392.146;-76.59
1392.345;-76.71
1392.544;-77.85
1392.743;-78.5
1392.943;-78.02
1393.142;-77.74
1393.341;-78.02
1393.54;-76.68
1393.739;-77.74
1393.938;-77.6
1394.137;-78.21
1394.336;-78.29
1394.535;-76.99
1394.735;-77.94
1394.934;-77.49
1395.133;-79.74
1395.332;-79.74
1395.531;-78.99
1395.73;-78.99
1395.929;-78.39
1396.128;-78.61
1396.327;-78.61
1396.527;-78.9
1396.726;-79.05
1396.925;-80.75
1397.124;-80.04
1397.323;-79.46
1397.522;-79.11
1397.721;-79.05
1397.92;-78.64
1398.12;-78.81
1398.319;-79.36
1398.518;-80.09
1398.717;-80.21
1398.916;-82.52
1399.115;-80.33
1399.314;-79.93
1399.513;-81.04
1399.712;-81.55
1399.912;-83.02
1400.111;-80.85
1400.31;-80.67
1400.509;-81.55
1400.708;-81.34
1400.907;-80.99
1401.106;-82.19
1401.305;-82.45
1401.504;-80.54
1401.704;-81.13
1401.903;-82.01
1402.102;-83.26
1402.301;-80.71
1402.5;-81.49
1402.699;-80.33
1402.898;-80.76
1403.097;-81.95
1403.297;-82.25
1403.496;-85.14
1403.695;-82.8
1403.894;-83.1
1404.093;-80.17
1404.292;-80.41
1404.491;-80.25
1404.69;-80.85
1404.889;-81.71
1405.089;-82.95
1405.288;-85.53
1405.487;-80.58
1405.686;-81.23
1405.885;-80.89
1406.084;-82.07
1406.283;-84.35
1406.482;-81.39
1406.681;-83.11
1406.881;-82.26
1407.08;-82.81
1407.279;-81.5
1407.478;-81.9
1407.677;-82.53
1407.876;-81.05
1408.075;-81.24
1408.274;-80.55
1408.474;-80.26
1408.673;-79.94
1408.872;-81.72
1409.071;-83.43
1409.27;-80.1
1409.469;-82.46
1409.668;-87.58
1409.867;-83.6
1410.066;-81.96
1410.266;-81.61
1410.465;-83.43
1410.664;-81.56
1410.863;-81.1
1411.062;-80.68
1411.261;-81.4
1411.46;-81.67
1411.659;-81.19
1411.858;-81.35
1412.058;-79.69
1412.257;-79.8
1412.456;-83.27
1412.655;-82.46
1412.854;-82.53
1413.053;-82.53
1413.252;-80.18
1413.451;-79.91
1413.65;-80.6
1413.85;-84.92
1414.049;-83.28
1414.248;-81.91
1414.447;-80.43
1414.646;-81.15
1414.845;-79.17
1415.044;-80.96
1415.243;-81.85
1415.443;-80.6
1415.642;-79.63
1415.841;-79.43
1416.04;-81.79
1416.239;-80.03
1416.438;-79.46
1416.637;-80.69
1416.836;-79.81
1417.035;-79.14
1417.235;-79.43
1417.434;-81.2
1417.633;-81.51
1417.832;-81.57
1418.031;-79.95
1418.23;-80.03
1418.429;-80.27
1418.628;-79.92
1418.827;-80.78
1419.027;-80.64
1419.226;-84.37
1419.425;-81.06
1419.624;-81.06
1419.823;-79.88
1420.022;-80.56
1420.221;-79.46
1420.42;-78.67
1420.62;-80.47
1420.819;-79.49
1421.018;-80.39
1421.217;-78.96
1421.416;-79.53
1421.615;-80.36
1421.814;-81.16
1422.013;-80.97
1422.212;-80.7
1422.412;-79.34
1422.611;-81.47
1422.81;-80.74
1423.009;-81.98
1423.208;-80.36
1423.407;-79.47
1423.606;-82.48
1423.805;-80.48
1424.004;-79.5
1424.204;-80.61
1424.403;-79.27
1424.602;-79.96
1424.801;-81.16
1425.0;-82.28
