Wavelength (nm);Intensity (dBm)
1131.0;1131.0
1200.0;-61.24
1200.199;-61.18
1200.398;-61.18
1200.597;-61.17
1200.797;-61.14
1200.996;-61.09
1201.195;-61.01
1201.394;-60.99
1201.593;-60.95
1201.792;-60.83
1201.991;-60.82
1202.19;-60.77
1202.389;-60.68
1202.589;-60.61
1202.788;-60.53
1202.987;-60.52
1203.186;-60.43
1203.385;-60.36
1203.584;-60.33
1203.783;-60.29
1203.982;-60.29
1204.181;-60.21
1204.381;-60.16
1204.58;-60.16
1204.779;-60.12
1204.978;-60.11
1205.177;-60.07
1205.376;-60.05
1205.575;-60.04
1205.774;-60.06
1205.974;-60.04
1206.173;-59.98
1206.372;-60.0
1206.571;-60.06
1206.77;-60.01
1206.969;-60.01
1207.168;-60.0
1207.367;-60.03
1207.566;-60.05
1207.766;-60.01
1207.965;-60.03
1208.164;-60.02
1208.363;-60.02
1208.562;-60.01
1208.761;-59.95
1208.96;-59.93
1209.159;-59.9
1209.358;-59.82
1209.558;-59.8
1209.757;-59.75
1209.956;-59.71
1210.155;-59.61
1210.354;-59.52
1210.553;-59.5
1210.752;-59.43
1210.951;-59.35
1211.15;-59.25
1211.35;-59.2
1211.549;-59.15
1211.748;-59.08
1211.947;-58.99
1212.146;-58.9
1212.345;-58.88
1212.544;-58.83
1212.743;-58.76
1212.943;-58.69
1213.142;-58.66
1213.341;-58.65
1213.54;-58.6
1213.739;-58.5
1213.938;-58.49
1214.137;-58.48
1214.336;-58.41
1214.535;-58.37
1214.735;-58.31
1214.934;-58.3
1215.133;-58.24
1215.332;-58.17
1215.531;-58.15
1215.73;-58.1
1215.929;-58.04
1216.128;-57.96
1216.327;-57.89
1216.527;-57.88
1216.726;-57.81
1216.925;-57.73
1217.124;-57.66
1217.323;-57.62
1217.522;-57.59
1217.721;-57.5
1217.92;-57.44
1218.12;-57.41
1218.319;-57.37
1218.518;-57.31
1218.717;-57.25
1218.916;-57.23
1219.115;-57.21
1219.314;-57.17
1219.513;-57.16
1219.712;-57.16
1219.912;-57.18
1220.111;-57.16
1220.31;-57.15
1220.509;-57.18
1220.708;-57.21
1220.907;-57.23
1221.106;-57.24
1221.305;-57.28
1221.504;-57.33
1221.704;-57.35
1221.903;-57.38
1222.102;-57.39
1222.301;-57.43
1222.5;-57.44
1222.699;-57.42
1222.898;-57.43
1223.097;-57.43
1223.297;-57.39
1223.496;-57.35
1223.695;-57.32
1223.894;-57.31
1224.093;-57.23
1224.292;-57.17
1224.491;-57.12
1224.69;-57.08
1224.889;-57.03
1225.089;-56.96
1225.288;-56.91
1225.487;-56.87
1225.686;-56.83
1225.885;-56.78
1226.084;-56.72
1226.283;-56.7
1226.482;-56.65
1226.681;-56.59
1226.881;-56.53
1227.08;-56.48
1227.279;-56.41
1227.478;-56.32
1227.677;-56.21
1227.876;-56.12
1228.075;-55.98
1228.274;-55.82
1228.474;-55.62
1228.673;-55.48
1228.872;-55.32
1229.071;-55.09
1229.27;-54.89
1229.469;-54.7
1229.668;-54.5
1229.867;-54.3
1230.066;-54.1
1230.266;-53.94
1230.465;-53.76
1230.664;-53.6
1230.863;-53.5
1231.062;-53.4
1231.261;-53.33
1231.46;-53.26
1231.659;-53.22
1231.858;-53.22
1232.058;-53.22
1232.257;-53.22
1232.456;-53.27
1232.655;-53.32
1232.854;-53.38
1233.053;-53.43
1233.252;-53.52
1233.451;-53.59
1233.65;-53.66
1233.85;-53.72
1234.049;-53.78
1234.248;-53.84
1234.447;-53.84
1234.646;-53.84
1234.845;-53.85
1235.044;-53.8
1235.243;-53.72
1235.443;-53.61
1235.642;-53.51
1235.841;-53.37
1236.04;-53.2
1236.239;-53.03
1236.438;-52.86
1236.637;-52.69
1236.836;-52.5
1237.035;-52.34
1237.235;-52.2
1237.434;-52.03
1237.633;-51.89
1237.832;-51.79
1238.031;-51.68
1238.23;-51.59
1238.429;-51.5
1238.628;-51.45
1238.827;-51.4
1239.027;-51.34
1239.226;-51.31
1239.425;-51.28
1239.624;-51.25
1239.823;-51.19
1240.022;-51.16
1240.221;-51.13
1240.42;-51.05
1240.62;-50.97
1240.819;-50.89
1241.018;-50.79
1241.217;-50.67
1241.416;-50.52
1241.615;-50.38
1241.814;-50.23
1242.013;-50.05
1242.212;-49.89
1242.412;-49.72
1242.611;-49.53
1242.81;-49.35
1243.009;-49.17
1243.208;-49.02
1243.407;-48.85
1243.606;-48.68
1243.805;-48.55
1244.004;-48.41
1244.204;-48.3
1244.403;-48.18
1244.602;-48.1
1244.801;-48.01
1245.0;-47.93
1245.199;-47.88
1245.398;-47.82
1245.597;-47.76
1245.797;-47.7
1245.996;-47.64
1246.195;-47.59
1246.394;-47.49
1246.593;-47.39
1246.792;-47.27
1246.991;-47.11
1247.19;-46.96
1247.389;-46.77
1247.589;-46.55
1247.788;-46.31
1247.987;-46.06
1248.186;-45.76
1248.385;-45.53
1248.584;-45.26
1248.783;-44.99
1248.982;-44.72
1249.181;-44.45
1249.381;-44.19
1249.58;-43.95
1249.779;-43.7
1249.978;-43.47
1250.177;-43.25
1250.376;-43.04
1250.575;-42.84
1250.774;-42.63
1250.974;-42.45
1251.173;-42.26
1251.372;-42.05
1251.571;-41.88
1251.77;-41.67
1251.969;-41.47
1252.168;-41.26
1252.367;-41.05
1252.566;-40.85
1252.766;-40.63
1252.965;-40.43
1253.164;-40.22
1253.363;-40.01
1253.562;-39.84
1253.761;-39.66
1253.96;-39.53
1254.159;-39.39
1254.358;-39.28
1254.558;-39.23
1254.757;-39.18
1254.956;-39.19
1255.155;-39.23
1255.354;-39.31
1255.553;-39.45
1255.752;-39.62
1255.951;-39.85
1256.15;-40.12
1256.35;-40.43
1256.549;-40.81
1256.748;-41.2
1256.947;-41.63
1257.146;-42.04
1257.345;-42.43
1257.544;-42.76
1257.743;-42.96
1257.943;-43.03
1258.142;-42.89
1258.341;-42.58
1258.54;-42.12
1258.739;-41.54
1258.938;-40.91
1259.137;-40.25
1259.336;-39.59
1259.535;-38.96
1259.735;-38.36
1259.934;-37.83
1260.133;-37.33
1260.332;-36.88
1260.531;-36.48
1260.73;-36.13
1260.929;-35.77
1261.128;-35.55
1261.327;-35.34
1261.527;-35.15
1261.726;-35.0
1261.925;-34.85
1262.124;-34.74
1262.323;-34.64
1262.522;-34.54
1262.721;-34.45
1262.92;-34.34
1263.12;-34.21
1263.319;-34.07
1263.518;-33.9
1263.717;-33.72
1263.916;-33.49
1264.115;-33.24
1264.314;-32.98
1264.513;-32.7
1264.712;-32.43
1264.912;-32.12
1265.111;-31.82
1265.31;-31.54
1265.509;-31.26
1265.708;-31.01
1265.907;-30.74
1266.106;-30.51
1266.305;-30.3
1266.504;-30.1
1266.704;-29.94
1266.903;-29.76
1267.102;-29.61
1267.301;-29.48
1267.5;-29.36
1267.699;-29.26
1267.898;-29.13
1268.097;-29.04
1268.297;-28.94
1268.496;-28.84
1268.695;-28.75
1268.894;-28.63
1269.093;-28.53
1269.292;-28.43
1269.491;-28.33
1269.69;-28.25
1269.889;-28.14
1270.089;-28.06
1270.288;-27.99
1270.487;-27.95
1270.686;-27.92
1270.885;-27.89
1271.084;-27.9
1271.283;-27.93
1271.482;-27.98
1271.681;-28.08
1271.881;-28.19
1272.08;-28.33
1272.279;-28.49
1272.478;-28.66
1272.677;-28.87
1272.876;-29.07
1273.075;-29.28
1273.274;-29.45
1273.474;-29.6
1273.673;-29.7
1273.872;-29.72
1274.071;-29.68
1274.27;-29.54
1274.469;-29.32
1274.668;-29.04
1274.867;-28.67
1275.066;-28.28
1275.266;-27.84
1275.465;-27.39
1275.664;-26.93
1275.863;-26.47
1276.062;-25.97
1276.261;-25.62
1276.46;-25.23
1276.659;-24.84
1276.858;-24.49
1277.058;-24.15
1277.257;-23.85
1277.456;-23.59
1277.655;-23.32
1277.854;-23.1
1278.053;-22.89
1278.252;-22.71
1278.451;-22.56
1278.65;-22.41
1278.85;-22.3
1279.049;-22.2
1279.248;-22.13
1279.447;-22.08
1279.646;-22.04
1279.845;-22.04
1280.044;-22.03
1280.243;-22.06
1280.443;-22.12
1280.642;-22.18
1280.841;-22.29
1281.04;-22.39
1281.239;-22.54
1281.438;-22.7
1281.637;-22.88
1281.836;-23.09
1282.035;-23.31
1282.235;-23.56
1282.434;-23.82
1282.633;-24.09
1282.832;-24.37
1283.031;-24.63
1283.23;-24.88
1283.429;-25.1
1283.628;-25.28
1283.827;-25.42
1284.027;-25.48
1284.226;-25.5
1284.425;-25.43
1284.624;-25.3
1284.823;-25.14
1285.022;-24.9
1285.221;-24.66
1285.42;-24.38
1285.62;-24.09
1285.819;-23.81
1286.018;-23.53
1286.217;-23.27
1286.416;-23.0
1286.615;-22.75
1286.814;-22.52
1287.013;-22.29
1287.212;-22.09
1287.412;-21.87
1287.611;-21.66
1287.81;-21.46
1288.009;-21.24
1288.208;-21.05
1288.407;-20.82
1288.606;-20.6
1288.805;-20.38
1289.004;-20.14
1289.204;-19.93
1289.403;-19.69
1289.602;-19.48
1289.801;-19.26
1290.0;-19.05
1290.199;-18.87
1290.398;-18.69
1290.597;-18.56
1290.797;-18.42
1290.996;-18.3
1291.195;-18.23
1291.394;-18.17
1291.593;-18.16
1291.792;-18.16
1291.991;-18.21
1292.19;-18.3
1292.389;-18.41
1292.589;-18.57
1292.788;-18.75
1292.987;-18.98
1293.186;-19.24
1293.385;-19.53
1293.584;-19.85
1293.783;-20.2
1293.982;-20.59
1294.181;-20.99
1294.381;-21.41
1294.58;-21.83
1294.779;-22.27
1294.978;-22.73
1295.177;-23.16
1295.376;-23.6
1295.575;-24.03
1295.774;-24.45
1295.974;-24.88
1296.173;-25.3
1296.372;-25.75
1296.571;-26.2
1296.77;-26.69
1296.969;-27.24
1297.168;-27.83
1297.367;-28.61
1297.566;-29.15
1297.766;-29.85
1297.965;-30.44
1298.164;-30.85
1298.363;-30.89
1298.562;-30.48
1298.761;-29.69
1298.96;-28.63
1299.159;-27.49
1299.358;-26.32
1299.558;-25.03
1299.757;-24.18
1299.956;-23.24
1300.155;-22.4
1300.354;-21.62
1300.553;-20.94
1300.752;-20.32
1300.951;-19.78
1301.15;-19.33
1301.35;-18.92
1301.549;-18.6
1301.748;-18.32
1301.947;-18.1
1302.146;-17.95
1302.345;-17.83
1302.544;-17.8
1302.743;-17.79
1302.943;-17.84
1303.142;-17.95
1303.341;-18.09
1303.54;-18.3
1303.739;-18.53
1303.938;-18.81
1304.137;-19.13
1304.336;-19.46
1304.535;-19.84
1304.735;-20.19
1304.934;-20.54
1305.133;-20.86
1305.332;-21.13
1305.531;-21.37
1305.73;-21.51
1305.929;-21.59
1306.128;-21.59
1306.327;-21.53
1306.527;-21.45
1306.726;-21.32
1306.925;-21.21
1307.124;-21.09
1307.323;-21.0
1307.522;-20.97
1307.721;-20.96
1307.92;-21.03
1308.12;-21.15
1308.319;-21.35
1308.518;-21.62
1308.717;-21.97
1308.916;-22.44
1309.115;-22.99
1309.314;-23.67
1309.513;-24.49
1309.712;-25.44
1309.912;-26.58
1310.111;-27.91
1310.31;-29.8
1310.509;-31.13
1310.708;-32.65
1310.907;-33.31
1311.106;-32.66
1311.305;-31.13
1311.504;-29.42
1311.704;-27.84
1311.903;-26.44
1312.102;-25.08
1312.301;-24.25
1312.5;-23.41
1312.699;-22.67
1312.898;-22.03
1313.097;-21.51
1313.297;-21.05
1313.496;-20.7
1313.695;-20.38
1313.894;-20.12
1314.093;-19.93
1314.292;-19.76
1314.491;-19.66
1314.69;-19.56
1314.889;-19.51
1315.089;-19.48
1315.288;-19.47
1315.487;-19.49
1315.686;-19.5
1315.885;-19.54
1316.084;-19.57
1316.283;-19.61
1316.482;-19.67
1316.681;-19.72
1316.881;-19.79
1317.08;-19.85
1317.279;-19.91
1317.478;-20.0
1317.677;-20.07
1317.876;-20.17
1318.075;-20.27
1318.274;-20.4
1318.474;-20.52
1318.673;-20.68
1318.872;-20.86
1319.071;-21.05
1319.27;-21.27
1319.469;-21.49
1319.668;-21.75
1319.867;-22.03
1320.066;-22.32
1320.266;-22.64
1320.465;-22.95
1320.664;-23.3
1320.863;-23.65
1321.062;-24.0
1321.261;-24.36
1321.46;-24.71
1321.659;-25.06
1321.858;-25.37
1322.058;-25.68
1322.257;-25.98
1322.456;-26.23
1322.655;-26.47
1322.854;-26.67
1323.053;-26.84
1323.252;-26.98
1323.451;-27.08
1323.65;-27.17
1323.85;-27.21
1324.049;-27.23
1324.248;-27.21
1324.447;-27.17
1324.646;-27.12
1324.845;-27.03
1325.044;-26.94
1325.243;-26.81
1325.443;-26.68
1325.642;-26.56
1325.841;-26.42
1326.04;-26.29
1326.239;-26.15
1326.438;-26.03
1326.637;-25.92
1326.836;-25.82
1327.035;-25.76
1327.235;-25.68
1327.434;-25.65
1327.633;-25.63
1327.832;-25.63
1328.031;-25.68
1328.23;-25.72
1328.429;-25.81
1328.628;-25.9
1328.827;-26.01
1329.027;-26.15
1329.226;-26.29
1329.425;-26.46
1329.624;-26.62
1329.823;-26.81
1330.022;-26.99
1330.221;-27.18
1330.42;-27.39
1330.62;-27.58
1330.819;-27.8
1331.018;-28.0
1331.217;-28.21
1331.416;-28.42
1331.615;-28.69
1331.814;-28.88
1332.013;-29.11
1332.212;-29.38
1332.412;-29.64
1332.611;-29.96
1332.81;-30.27
1333.009;-30.62
1333.208;-31.02
1333.407;-31.44
1333.606;-31.91
1333.805;-32.41
1334.004;-32.95
1334.204;-33.53
1334.403;-34.12
1334.602;-34.75
1334.801;-35.35
1335.0;-35.94
1335.199;-36.45
1335.398;-36.86
1335.597;-37.14
1335.797;-37.26
1335.996;-37.25
1336.195;-37.09
1336.394;-36.85
1336.593;-36.57
1336.792;-36.24
1336.991;-35.96
1337.19;-35.68
1337.389;-35.47
1337.589;-35.29
1337.788;-35.18
1337.987;-35.14
1338.186;-35.14
1338.385;-35.23
1338.584;-35.38
1338.783;-35.6
1338.982;-35.91
1339.181;-36.29
1339.381;-36.77
1339.58;-37.31
1339.779;-37.99
1339.978;-38.93
1340.177;-39.68
1340.376;-40.71
1340.575;-41.92
1340.774;-43.31
1340.974;-44.83
1341.173;-46.51
1341.372;-48.1
1341.571;-49.38
1341.77;-49.24
1341.969;-48.32
1342.168;-46.98
1342.367;-45.39
1342.566;-44.43
1342.766;-43.41
1342.965;-42.57
1343.164;-41.85
1343.363;-41.29
1343.562;-40.83
1343.761;-40.48
1343.96;-40.23
1344.159;-40.06
1344.358;-39.97
1344.558;-39.94
1344.757;-39.98
1344.956;-40.08
1345.155;-40.22
1345.354;-40.43
1345.553;-40.67
1345.752;-40.96
1345.951;-41.29
1346.15;-41.65
1346.35;-42.05
1346.549;-42.47
1346.748;-42.89
1346.947;-43.3
1347.146;-43.72
1347.345;-44.12
1347.544;-44.54
1347.743;-44.96
1347.943;-45.32
1348.142;-45.65
1348.341;-45.96
1348.54;-46.2
1348.739;-46.47
1348.938;-46.71
1349.137;-46.97
1349.336;-47.21
1349.535;-47.49
1349.735;-47.78
1349.934;-48.09
1350.133;-48.55
1350.332;-48.89
1350.531;-49.3
1350.73;-49.68
1350.929;-50.04
1351.128;-50.35
1351.327;-50.66
1351.527;-50.95
1351.726;-51.2
1351.925;-51.35
1352.124;-51.4
1352.323;-51.39
1352.522;-51.36
1352.721;-51.2
1352.92;-51.04
1353.12;-50.96
1353.319;-50.74
1353.518;-50.58
1353.717;-50.46
1353.916;-50.31
1354.115;-50.21
1354.314;-50.25
1354.513;-50.27
1354.712;-50.45
1354.912;-50.64
1355.111;-50.75
1355.31;-50.85
1355.509;-50.83
1355.708;-51.1
1355.907;-51.39
1356.106;-51.58
1356.305;-51.71
1356.504;-51.84
1356.704;-51.78
1356.903;-51.92
1357.102;-52.26
1357.301;-52.45
1357.5;-52.56
1357.699;-52.67
1357.898;-52.62
1358.097;-52.58
1358.297;-52.66
1358.496;-52.8
1358.695;-52.87
1358.894;-52.96
1359.093;-53.1
1359.292;-53.15
1359.491;-53.56
1359.69;-53.95
1359.889;-54.31
1360.089;-54.63
1360.288;-54.92
1360.487;-55.25
1360.686;-55.81
1360.885;-56.64
1361.084;-57.54
1361.283;-58.67
1361.482;-59.56
1361.681;-60.59
1361.881;-61.8
1362.08;-63.1
1362.279;-64.62
1362.478;-65.65
1362.677;-66.2
1362.876;-65.76
1363.075;-64.83
1363.274;-63.61
1363.474;-62.62
1363.673;-61.68
1363.872;-60.87
1364.071;-60.26
1364.27;-59.73
1364.469;-59.44
1364.668;-59.46
1364.867;-59.2
1365.066;-58.78
1365.266;-58.68
1365.465;-58.46
1365.664;-58.41
1365.863;-58.38
1366.062;-58.38
1366.261;-58.41
1366.46;-58.57
1366.659;-58.86
1366.858;-59.27
1367.058;-59.58
1367.257;-59.9
1367.456;-60.4
1367.655;-60.76
1367.854;-61.23
1368.053;-61.53
1368.252;-61.65
1368.451;-62.06
1368.65;-62.2
1368.85;-62.3
1369.049;-62.23
1369.248;-62.08
1369.447;-61.97
1369.646;-61.93
1369.845;-62.16
1370.044;-62.24
1370.243;-62.29
1370.443;-62.27
1370.642;-62.26
1370.841;-62.58
1371.04;-62.9
1371.239;-63.15
1371.438;-63.32
1371.637;-63.46
1371.836;-63.61
1372.035;-64.1
1372.235;-64.6
1372.434;-65.04
1372.633;-65.57
1372.832;-66.08
1373.031;-66.49
1373.23;-67.25
1373.429;-67.9
1373.628;-68.62
1373.827;-69.47
1374.027;-70.13
1374.226;-71.09
1374.425;-71.64
1374.624;-72.64
1374.823;-72.99
1375.022;-73.73
1375.221;-74.15
1375.42;-75.41
1375.62;-75.35
1375.819;-75.89
1376.018;-75.81
1376.217;-76.46
1376.416;-76.04
1376.615;-76.97
1376.814;-76.54
1377.013;-77.11
1377.212;-76.84
1377.412;-77.01
1377.611;-76.54
1377.81;-75.96
1378.009;-75.9
1378.208;-75.66
1378.407;-75.74
1378.606;-75.08
1378.805;-75.16
1379.004;-74.71
1379.204;-74.45
1379.403;-73.84
1379.602;-73.28
1379.801;-73.56
1380.0;-73.23
1380.199;-73.46
1380.398;-73.44
1380.597;-73.46
1380.797;-73.92
1380.996;-73.8
1381.195;-74.15
1381.394;-73.72
1381.593;-73.61
1381.792;-73.53
1381.991;-73.85
1382.19;-74.41
1382.389;-74.4
1382.589;-75.11
1382.788;-76.02
1382.987;-76.28
1383.186;-76.14
1383.385;-76.24
1383.584;-75.87
1383.783;-75.31
1383.982;-76.27
1384.181;-76.02
1384.381;-75.54
1384.58;-75.35
1384.779;-75.62
1384.978;-76.81
1385.177;-76.13
1385.376;-75.91
1385.575;-75.94
1385.774;-75.76
1385.974;-75.51
1386.173;-75.51
1386.372;-75.69
1386.571;-75.77
1386.77;-75.59
1386.969;-75.43
1387.168;-75.86
1387.367;-75.91
1387.566;-75.67
1387.766;-76.2
1387.965;-76.09
1388.164;-76.81
1388.363;-77.68
1388.562;-77.12
1388.761;-77.21
1388.96;-76.63
1389.159;-76.15
1389.358;-77.68
1389.558;-76.81
1389.757;-76.61
1389.956;-76.76
1390.155;-76.44
1390.354;-76.48
1390.553;-75.59
1390.752;-76.81
1390.951;-76.44
1391.15;-76.61
1391.35;-76.39
1391.549;-76.88
1391.748;-76.22
1391.947;-77.31
1392.146;-76.49
1392.345;-77.05
1392.544;-78.87
1392.743;-78.19
1392.943;-77.52
1393.142;-77.47
1393.341;-77.74
1393.54;-78.26
1393.739;-77.33
1393.938;-77.83
1394.137;-77.8
1394.336;-79.2
1394.535;-79.17
1394.735;-78.29
1394.934;-79.3
1395.133;-79.43
1395.332;-78.37
1395.531;-79.71
1395.73;-78.58
1395.929;-78.07
1396.128;-78.93
1396.327;-78.42
1396.527;-78.39
1396.726;-78.99
1396.925;-80.7
1397.124;-79.67
1397.323;-78.99
1397.522;-79.64
1397.721;-78.32
1397.92;-77.74
1398.12;-78.61
1398.319;-78.87
1398.518;-78.38
1398.717;-79.28
1398.916;-79.51
1399.115;-79.72
1399.314;-80.33
1399.513;-79.21
1399.712;-80.37
1399.912;-79.31
1400.111;-81.66
1400.31;-79.86
1400.509;-80.94
1400.708;-80.94
1400.907;-80.76
1401.106;-80.67
1401.305;-82.52
1401.504;-81.49
1401.704;-81.18
1401.903;-83.42
1402.102;-81.13
1402.301;-82.8
1402.5;-81.77
1402.699;-80.94
1402.898;-82.73
1403.097;-81.04
1403.297;-83.02
1403.496;-80.94
1403.695;-81.23
1403.894;-84.24
1404.093;-81.55
1404.292;-81.55
1404.491;-81.89
1404.69;-82.07
1404.889;-82.32
1405.089;-82.66
1405.288;-82.52
1405.487;-81.34
1405.686;-84.56
1405.885;-80.89
1406.084;-81.66
1406.283;-79.51
1406.482;-80.54
1406.681;-81.56
1406.881;-80.42
1407.08;-82.53
1407.279;-82.39
1407.478;-81.9
1407.677;-81.72
1407.876;-79.8
1408.075;-80.34
1408.274;-81.35
1408.474;-81.45
1408.673;-80.59
1408.872;-84.46
1409.071;-82.53
1409.27;-80.38
1409.469;-81.35
1409.668;-81.9
1409.867;-83.6
1410.066;-81.24
1410.266;-79.45
1410.465;-81.14
1410.664;-82.2
1410.863;-80.26
1411.062;-79.8
1411.261;-80.95
1411.46;-81.67
1411.659;-81.4
1411.858;-80.5
1412.058;-82.02
1412.257;-82.33
1412.456;-81.05
1412.655;-80.06
1412.854;-80.59
1413.053;-83.19
1413.252;-80.26
1413.451;-80.59
1413.65;-82.47
1413.85;-83.04
1414.049;-81.46
1414.248;-81.85
1414.447;-80.56
1414.646;-81.68
1414.845;-79.88
1415.044;-81.25
1415.243;-82.03
1415.443;-81.06
1415.642;-83.44
1415.841;-80.78
1416.04;-81.11
1416.239;-81.11
1416.438;-81.46
1416.637;-81.01
1416.836;-81.51
1417.035;-81.46
1417.235;-79.84
1417.434;-81.46
1417.633;-79.49
1417.832;-83.61
1418.031;-80.27
1418.23;-81.36
1418.429;-81.97
1418.628;-81.06
1418.827;-81.57
1419.027;-81.06
1419.226;-81.73
1419.425;-83.79
1419.624;-79.92
1419.823;-79.26
1420.022;-80.43
1420.221;-79.26
1420.42;-80.64
1420.62;-80.51
1420.819;-80.23
1421.018;-80.87
1421.217;-81.79
1421.416;-80.56
1421.615;-81.86
1421.814;-81.69
1422.013;-79.4
1422.212;-80.16
1422.412;-80.44
1422.611;-79.96
1422.81;-82.16
1423.009;-83.45
1423.208;-80.28
1423.407;-79.54
1423.606;-80.74
1423.805;-80.44
1424.004;-82.04
1424.204;-81.12
1424.403;-79.89
1424.602;-80.74
1424.801;-80.52
1425.0;-80.79
