Wavelength;Intensity_Meas;Intensity_Ref;Difference_dB
1200.0000;-60.6100;-55.6000;-5.0100
1200.1990;-60.5700;-55.5600;-5.0100
1200.3980;-60.5700;-55.5400;-5.0300
1200.5970;-60.6000;-55.5000;-5.1000
1200.7970;-60.5500;-55.4800;-5.0700
1200.9960;-60.5000;-55.4400;-5.0600
1201.1950;-60.5300;-55.3900;-5.1400
1201.3940;-60.5600;-55.3500;-5.2100
1201.5930;-60.5600;-55.3200;-5.2400
1201.7920;-60.4700;-55.2800;-5.1900
1201.9910;-60.4800;-55.2100;-5.2700
1202.1900;-60.5800;-55.1600;-5.4200
1202.3890;-60.5600;-55.1100;-5.4500
1202.5890;-60.4700;-55.0800;-5.3900
1202.7880;-60.4500;-55.0100;-5.4400
1202.9870;-60.4600;-54.9400;-5.5200
1203.1860;-60.4800;-54.8900;-5.5900
1203.3850;-60.4000;-54.8700;-5.5300
1203.5840;-60.3500;-54.8100;-5.5400
1203.7830;-60.3700;-54.7500;-5.6200
1203.9820;-60.3800;-54.7200;-5.6600
1204.1810;-60.3400;-54.6800;-5.6600
1204.3810;-60.2500;-54.6400;-5.6100
1204.5800;-60.2500;-54.6000;-5.6500
1204.7790;-60.2900;-54.5800;-5.7100
1204.9780;-60.2600;-54.5500;-5.7100
1205.1770;-60.1700;-54.5100;-5.6600
1205.3760;-60.1400;-54.4800;-5.6600
1205.5750;-60.1700;-54.4600;-5.7100
1205.7740;-60.1400;-54.4400;-5.7000
1205.9740;-60.0800;-54.4400;-5.6400
1206.1730;-60.0300;-54.4100;-5.6200
1206.3720;-60.0000;-54.3800;-5.6200
1206.5710;-59.9700;-54.3500;-5.6200
1206.7700;-59.8800;-54.3400;-5.5400
1206.9690;-59.7500;-54.3100;-5.4400
1207.1680;-59.7200;-54.2700;-5.4500
1207.3670;-59.6800;-54.2400;-5.4400
1207.5660;-59.6000;-54.2200;-5.3800
1207.7660;-59.4700;-54.1900;-5.2800
1207.9650;-59.4100;-54.1500;-5.2600
1208.1640;-59.3900;-54.0900;-5.3000
1208.3630;-59.3100;-54.0700;-5.2400
1208.5620;-59.2100;-54.0300;-5.1800
1208.7610;-59.1700;-53.9700;-5.2000
1208.9600;-59.1300;-53.9200;-5.2100
1209.1590;-59.1100;-53.8600;-5.2500
1209.3580;-59.0300;-53.8200;-5.2100
1209.5580;-58.9600;-53.7600;-5.2000
1209.7570;-58.9600;-53.7100;-5.2500
1209.9560;-58.9500;-53.6500;-5.3000
1210.1550;-58.9100;-53.6100;-5.3000
1210.3540;-58.8300;-53.5700;-5.2600
1210.5530;-58.8200;-53.4900;-5.3300
1210.7520;-58.8500;-53.4400;-5.4100
1210.9510;-58.7900;-53.4100;-5.3800
1211.1500;-58.7600;-53.3500;-5.4100
1211.3500;-58.7500;-53.3100;-5.4400
1211.5490;-58.7800;-53.2600;-5.5200
1211.7480;-58.7900;-53.2300;-5.5600
1211.9470;-58.7300;-53.2100;-5.5200
1212.1460;-58.7500;-53.1600;-5.5900
1212.3450;-58.7800;-53.1200;-5.6600
1212.5440;-58.7900;-53.1000;-5.6900
1212.7430;-58.7700;-53.0700;-5.7000
1212.9430;-58.7800;-53.0300;-5.7500
1213.1420;-58.8100;-52.9900;-5.8200
1213.3410;-58.8100;-52.9800;-5.8300
1213.5400;-58.7700;-52.9500;-5.8200
1213.7390;-58.7400;-52.9000;-5.8400
1213.9380;-58.7300;-52.8700;-5.8600
1214.1370;-58.7000;-52.8300;-5.8700
1214.3360;-58.6000;-52.8000;-5.8000
1214.5350;-58.5200;-52.7600;-5.7600
1214.7350;-58.4800;-52.7100;-5.7700
1214.9340;-58.4000;-52.6600;-5.7400
1215.1330;-58.2900;-52.6200;-5.6700
1215.3320;-58.1500;-52.5800;-5.5700
1215.5310;-58.0800;-52.5100;-5.5700
1215.7300;-58.0100;-52.4500;-5.5600
1215.9290;-57.8700;-52.4200;-5.4500
1216.1280;-57.7500;-52.3500;-5.4000
1216.3270;-57.6400;-52.2900;-5.3500
1216.5270;-57.5600;-52.2300;-5.3300
1216.7260;-57.4600;-52.1700;-5.2900
1216.9250;-57.3300;-52.1200;-5.2100
1217.1240;-57.2200;-52.0500;-5.1700
1217.3230;-57.1500;-52.0000;-5.1500
1217.5220;-57.0700;-51.9400;-5.1300
1217.7210;-56.9700;-51.8900;-5.0800
1217.9200;-56.8900;-51.8400;-5.0500
1218.1200;-56.8500;-51.7700;-5.0800
1218.3190;-56.7700;-51.7400;-5.0300
1218.5180;-56.7100;-51.6900;-5.0200
1218.7170;-56.6800;-51.6500;-5.0300
1218.9160;-56.6600;-51.6100;-5.0500
1219.1150;-56.6500;-51.5600;-5.0900
1219.3140;-56.6300;-51.5400;-5.0900
1219.5130;-56.6400;-51.5000;-5.1400
1219.7120;-56.6800;-51.4500;-5.2300
1219.9120;-56.7000;-51.4200;-5.2800
1220.1110;-56.7400;-51.3900;-5.3500
1220.3100;-56.7800;-51.3500;-5.4300
1220.5090;-56.8500;-51.3000;-5.5500
1220.7080;-56.9300;-51.2600;-5.6700
1220.9070;-56.9700;-51.2200;-5.7500
1221.1060;-57.0200;-51.1600;-5.8600
1221.3050;-57.0800;-51.1200;-5.9600
1221.5040;-57.1300;-51.0400;-6.0900
1221.7040;-57.1600;-50.9900;-6.1700
1221.9030;-57.1600;-50.9400;-6.2200
1222.1020;-57.1900;-50.8600;-6.3300
1222.3010;-57.1700;-50.8100;-6.3600
1222.5000;-57.1300;-50.7300;-6.4000
1222.6990;-57.1000;-50.6700;-6.4300
1222.8980;-57.0400;-50.5900;-6.4500
1223.0970;-56.9600;-50.5100;-6.4500
1223.2970;-56.8600;-50.4600;-6.4000
1223.4960;-56.7400;-50.3700;-6.3700
1223.6950;-56.6400;-50.3000;-6.3400
1223.8940;-56.5100;-50.2400;-6.2700
1224.0930;-56.3700;-50.1600;-6.2100
1224.2920;-56.2000;-50.1100;-6.0900
1224.4910;-56.0500;-50.0200;-6.0300
1224.6900;-55.9000;-49.9600;-5.9400
1224.8890;-55.6500;-49.9000;-5.7500
1225.0890;-55.5200;-49.8400;-5.6800
1225.2880;-55.3500;-49.7800;-5.5700
1225.4870;-55.1800;-49.7100;-5.4700
1225.6860;-55.0100;-49.6600;-5.3500
1225.8850;-54.8400;-49.6200;-5.2200
1226.0840;-54.7000;-49.5500;-5.1500
1226.2830;-54.5400;-49.5100;-5.0300
1226.4820;-54.4100;-49.4400;-4.9700
1226.6810;-54.2700;-49.4000;-4.8700
1226.8810;-54.1600;-49.3500;-4.8100
1227.0800;-54.0800;-49.2800;-4.8000
1227.2790;-53.9800;-49.2400;-4.7400
1227.4780;-53.9200;-49.1700;-4.7500
1227.6770;-53.8800;-49.1100;-4.7700
1227.8760;-53.8400;-49.0500;-4.7900
1228.0750;-53.8200;-48.9800;-4.8400
1228.2740;-53.8100;-48.9200;-4.8900
1228.4740;-53.8200;-48.8400;-4.9800
1228.6730;-53.8400;-48.7700;-5.0700
1228.8720;-53.8600;-48.7000;-5.1600
1229.0710;-53.9000;-48.6200;-5.2800
1229.2700;-53.9400;-48.5500;-5.3900
1229.4690;-53.9700;-48.4500;-5.5200
1229.6680;-54.0300;-48.3800;-5.6500
1229.8670;-54.0700;-48.3000;-5.7700
1230.0660;-54.1400;-48.2100;-5.9300
1230.2660;-54.1700;-48.1300;-6.0400
1230.4650;-54.2100;-48.0400;-6.1700
1230.6640;-54.2600;-47.9600;-6.3000
1230.8630;-54.3100;-47.8900;-6.4200
1231.0620;-54.3600;-47.8100;-6.5500
1231.2610;-54.3800;-47.7600;-6.6200
1231.4600;-54.4000;-47.6800;-6.7200
1231.6590;-54.4000;-47.6200;-6.7800
1231.8580;-54.3600;-47.5500;-6.8100
1232.0580;-54.3400;-47.5000;-6.8400
1232.2570;-54.2700;-47.4400;-6.8300
1232.4560;-54.1900;-47.3700;-6.8200
1232.6550;-54.0800;-47.3200;-6.7600
1232.8540;-53.9400;-47.2500;-6.6900
1233.0530;-53.8100;-47.2000;-6.6100
1233.2520;-53.6300;-47.1500;-6.4800
1233.4510;-53.4600;-47.0700;-6.3900
1233.6500;-53.2800;-47.0300;-6.2500
1233.8500;-53.0900;-46.9500;-6.1400
1234.0490;-52.9200;-46.8900;-6.0300
1234.2480;-52.7100;-46.8300;-5.8800
1234.4470;-52.5400;-46.7500;-5.7900
1234.6460;-52.3700;-46.6900;-5.6800
1234.8450;-52.2100;-46.6100;-5.6000
1235.0440;-52.0700;-46.5300;-5.5400
1235.2430;-51.9200;-46.4600;-5.4600
1235.4430;-51.7900;-46.3600;-5.4300
1235.6420;-51.6800;-46.2900;-5.3900
1235.8410;-51.5700;-46.1900;-5.3800
1236.0400;-51.4900;-46.1100;-5.3800
1236.2390;-51.3900;-46.0200;-5.3700
1236.4380;-51.3100;-45.9100;-5.4000
1236.6370;-51.2500;-45.8300;-5.4200
1236.8360;-51.1900;-45.7400;-5.4500
1237.0350;-51.1500;-45.6700;-5.4800
1237.2350;-51.0900;-45.5700;-5.5200
1237.4340;-51.0600;-45.4700;-5.5900
1237.6330;-51.0300;-45.3900;-5.6400
1237.8320;-51.0000;-45.3100;-5.6900
1238.0310;-50.9800;-45.2400;-5.7400
1238.2300;-50.9600;-45.1500;-5.8100
1238.4290;-50.9500;-45.0700;-5.8800
1238.6280;-50.9200;-45.0000;-5.9200
1238.8270;-50.8900;-44.9100;-5.9800
1239.0270;-50.8800;-44.8500;-6.0300
1239.2260;-50.8300;-44.7500;-6.0800
1239.4250;-50.7800;-44.6700;-6.1100
1239.6240;-50.7200;-44.6000;-6.1200
1239.8230;-50.6400;-44.5100;-6.1300
1240.0220;-50.5700;-44.4400;-6.1300
1240.2210;-50.4600;-44.3400;-6.1200
1240.4200;-50.3500;-44.2500;-6.1000
1240.6200;-50.2200;-44.1600;-6.0600
1240.8190;-50.0900;-44.0600;-6.0300
1241.0180;-49.9300;-43.9600;-5.9700
1241.2170;-49.7800;-43.8500;-5.9300
1241.4160;-49.6400;-43.7400;-5.9000
1241.6150;-49.4600;-43.6200;-5.8400
1241.8140;-49.3200;-43.5000;-5.8200
1242.0130;-49.2000;-43.4000;-5.8000
1242.2120;-49.0800;-43.2700;-5.8100
1242.4120;-48.9800;-43.1500;-5.8300
1242.6110;-48.8700;-43.0300;-5.8400
1242.8100;-48.8000;-42.9000;-5.9000
1243.0090;-48.7400;-42.7800;-5.9600
1243.2080;-48.7000;-42.6500;-6.0500
1243.4070;-48.6900;-42.5300;-6.1600
1243.6060;-48.6700;-42.4000;-6.2700
1243.8050;-48.6800;-42.2800;-6.4000
1244.0040;-48.7000;-42.1600;-6.5400
1244.2040;-48.7400;-42.0300;-6.7100
1244.4030;-48.7900;-41.9100;-6.8800
1244.6020;-48.8200;-41.7900;-7.0300
1244.8010;-48.8700;-41.6700;-7.2000
1245.0000;-48.9200;-41.5700;-7.3500
1245.1990;-48.9400;-41.4400;-7.5000
1245.3980;-48.9600;-41.3300;-7.6300
1245.5970;-48.9300;-41.2000;-7.7300
1245.7970;-48.8800;-41.0800;-7.8000
1245.9960;-48.7900;-40.9700;-7.8200
1246.1950;-48.6400;-40.8400;-7.8000
1246.3940;-48.4700;-40.7200;-7.7500
1246.5930;-48.2200;-40.5800;-7.6400
1246.7920;-47.9300;-40.4600;-7.4700
1246.9910;-47.5900;-40.3300;-7.2600
1247.1900;-47.2200;-40.1900;-7.0300
1247.3890;-46.8400;-40.0500;-6.7900
1247.5890;-46.3900;-39.9100;-6.4800
1247.7880;-45.9500;-39.7700;-6.1800
1247.9870;-45.4400;-39.6400;-5.8000
1248.1860;-45.0600;-39.4900;-5.5700
1248.3850;-44.6500;-39.3500;-5.3000
1248.5840;-44.2100;-39.2000;-5.0100
1248.7830;-43.8100;-39.0500;-4.7600
1248.9820;-43.4300;-38.9300;-4.5000
1249.1810;-43.0700;-38.7700;-4.3000
1249.3810;-42.7400;-38.6400;-4.1000
1249.5800;-42.4200;-38.5000;-3.9200
1249.7790;-42.1500;-38.3600;-3.7900
1249.9780;-41.8900;-38.2200;-3.6700
1250.1770;-41.6700;-38.0800;-3.5900
1250.3760;-41.4900;-37.9500;-3.5400
1250.5750;-41.3100;-37.8100;-3.5000
1250.7740;-41.1800;-37.6800;-3.5000
1250.9740;-41.0900;-37.5700;-3.5200
1251.1730;-41.0100;-37.4300;-3.5800
1251.3720;-40.9800;-37.3000;-3.6800
1251.5710;-40.9600;-37.1800;-3.7800
1251.7700;-40.9800;-37.0400;-3.9400
1251.9690;-41.0200;-36.9200;-4.1000
1252.1680;-41.0900;-36.7700;-4.3200
1252.3670;-41.2000;-36.6500;-4.5500
1252.5660;-41.3200;-36.5200;-4.8000
1252.7660;-41.4700;-36.3800;-5.0900
1252.9650;-41.6400;-36.2600;-5.3800
1253.1640;-41.8200;-36.1100;-5.7100
1253.3630;-42.0300;-35.9700;-6.0600
1253.5620;-42.2200;-35.8000;-6.4200
1253.7610;-42.4000;-35.6900;-6.7100
1253.9600;-42.5400;-35.5400;-7.0000
1254.1590;-42.6300;-35.4000;-7.2300
1254.3580;-42.6600;-35.2500;-7.4100
1254.5580;-42.6000;-35.1100;-7.4900
1254.7570;-42.4600;-34.9700;-7.4900
1254.9560;-42.2000;-34.8100;-7.3900
1255.1550;-41.8600;-34.6700;-7.1900
1255.3540;-41.4400;-34.5400;-6.9000
1255.5530;-40.9600;-34.4000;-6.5600
1255.7520;-40.4500;-34.2700;-6.1800
1255.9510;-39.8800;-34.1200;-5.7600
1256.1500;-39.3400;-34.0000;-5.3400
1256.3500;-38.7900;-33.8600;-4.9300
1256.5490;-38.2500;-33.7300;-4.5200
1256.7480;-37.7400;-33.6200;-4.1200
1256.9470;-37.2300;-33.4700;-3.7600
1257.1460;-36.7500;-33.3500;-3.4000
1257.3450;-36.3100;-33.2300;-3.0800
1257.5440;-35.8400;-33.1000;-2.7400
1257.7430;-35.5200;-32.9900;-2.5300
1257.9430;-35.1700;-32.8400;-2.3300
1258.1420;-34.8700;-32.7300;-2.1400
1258.3410;-34.5700;-32.5900;-1.9800
1258.5400;-34.3200;-32.4700;-1.8500
1258.7390;-34.0900;-32.3500;-1.7400
1258.9380;-33.8900;-32.2000;-1.6900
1259.1370;-33.7500;-32.0800;-1.6700
1259.3360;-33.6100;-31.9300;-1.6800
1259.5350;-33.5300;-31.8000;-1.7300
1259.7350;-33.4700;-31.6700;-1.8000
1259.9340;-33.4500;-31.5200;-1.9300
1260.1330;-33.4900;-31.4000;-2.0900
1260.3320;-33.5400;-31.2600;-2.2800
1260.5310;-33.6600;-31.1300;-2.5300
1260.7300;-33.8100;-31.0000;-2.8100
1260.9290;-34.0100;-30.8600;-3.1500
1261.1280;-34.2800;-30.7300;-3.5500
1261.3270;-34.5800;-30.5900;-3.9900
1261.5270;-34.9600;-30.4700;-4.4900
1261.7260;-35.3900;-30.3500;-5.0400
1261.9250;-35.8900;-30.2100;-5.6800
1262.1240;-36.4700;-30.0900;-6.3800
1262.3230;-37.1000;-29.9600;-7.1400
1262.5220;-37.8400;-29.8500;-7.9900
1262.7210;-38.7700;-29.7300;-9.0400
1262.9200;-39.4300;-29.6000;-9.8300
1263.1200;-40.2000;-29.4800;-10.7200
1263.3190;-40.8300;-29.3500;-11.4800
1263.5180;-41.2000;-29.2300;-11.9700
1263.7170;-41.1200;-29.1200;-12.0000
1263.9160;-40.6200;-28.9900;-11.6300
1264.1150;-39.7700;-28.8700;-10.9000
1264.3140;-38.7300;-28.7400;-9.9900
1264.5130;-37.6500;-28.6200;-9.0300
1264.7120;-36.5400;-28.5000;-8.0400
1264.9120;-35.3400;-28.3600;-6.9800
1265.1110;-34.5200;-28.2400;-6.2800
1265.3100;-33.6400;-28.1000;-5.5400
1265.5090;-32.8200;-27.9900;-4.8300
1265.7080;-32.0700;-27.8600;-4.2100
1265.9070;-31.4000;-27.7300;-3.6700
1266.1060;-30.7700;-27.6100;-3.1600
1266.3050;-30.2100;-27.4800;-2.7300
1266.5040;-29.7100;-27.3700;-2.3400
1266.7040;-29.2500;-27.2500;-2.0000
1266.9030;-28.8600;-27.1200;-1.7400
1267.1020;-28.4800;-27.0200;-1.4600
1267.3010;-28.1700;-26.8900;-1.2800
1267.5000;-27.9000;-26.7900;-1.1100
1267.6990;-27.6600;-26.6800;-0.9800
1267.8980;-27.4700;-26.5600;-0.9100
1268.0970;-27.3000;-26.4700;-0.8300
1268.2970;-27.1800;-26.3400;-0.8400
1268.4960;-27.0800;-26.2500;-0.8300
1268.6950;-27.0200;-26.1300;-0.8900
1268.8940;-27.0000;-26.0100;-0.9900
1269.0930;-26.9900;-25.9100;-1.0800
1269.2920;-27.0300;-25.8000;-1.2300
1269.4910;-27.0900;-25.7100;-1.3800
1269.6900;-27.1800;-25.5900;-1.5900
1269.8890;-27.3100;-25.4900;-1.8200
1270.0890;-27.4500;-25.3700;-2.0800
1270.2880;-27.6300;-25.2600;-2.3700
1270.4870;-27.8300;-25.1700;-2.6600
1270.6860;-28.0600;-25.0500;-3.0100
1270.8850;-28.3000;-24.9400;-3.3600
1271.0840;-28.5500;-24.8200;-3.7300
1271.2830;-28.8100;-24.7200;-4.0900
1271.4820;-29.0400;-24.6200;-4.4200
1271.6810;-29.2700;-24.5000;-4.7700
1271.8810;-29.4500;-24.4100;-5.0400
1272.0800;-29.5700;-24.2900;-5.2800
1272.2790;-29.6300;-24.1900;-5.4400
1272.4780;-29.6000;-24.0900;-5.5100
1272.6770;-29.4900;-23.9900;-5.5000
1272.8760;-29.2900;-23.9000;-5.3900
1273.0750;-29.0100;-23.7900;-5.2200
1273.2740;-28.6900;-23.7000;-4.9900
1273.4740;-28.2900;-23.6100;-4.6800
1273.6730;-27.8700;-23.5100;-4.3600
1273.8720;-27.4300;-23.4200;-4.0100
1274.0710;-26.9800;-23.3200;-3.6600
1274.2700;-26.5500;-23.2300;-3.3200
1274.4690;-26.0400;-23.1500;-2.8900
1274.6680;-25.7100;-23.0500;-2.6600
1274.8670;-25.3100;-22.9700;-2.3400
1275.0660;-24.9500;-22.8700;-2.0800
1275.2660;-24.5900;-22.7700;-1.8200
1275.4650;-24.2800;-22.6800;-1.6000
1275.6640;-23.9900;-22.5800;-1.4100
1275.8630;-23.7200;-22.5000;-1.2200
1276.0620;-23.5000;-22.3900;-1.1100
1276.2610;-23.2800;-22.3000;-0.9800
1276.4600;-23.1000;-22.2100;-0.8900
1276.6590;-22.9400;-22.1000;-0.8400
1276.8580;-22.8200;-22.0200;-0.8000
1277.0580;-22.7400;-21.9200;-0.8200
1277.2570;-22.6600;-21.8300;-0.8300
1277.4560;-22.6300;-21.7400;-0.8900
1277.6550;-22.6100;-21.6500;-0.9600
1277.8540;-22.6200;-21.5700;-1.0500
1278.0530;-22.6700;-21.4700;-1.2000
1278.2520;-22.7100;-21.3900;-1.3200
1278.4510;-22.8000;-21.3000;-1.5000
1278.6500;-22.8900;-21.2200;-1.6700
1278.8500;-23.0100;-21.1400;-1.8700
1279.0490;-23.1500;-21.0500;-2.1000
1279.2480;-23.2800;-20.9800;-2.3000
1279.4470;-23.4300;-20.8900;-2.5400
1279.6460;-23.5700;-20.8100;-2.7600
1279.8450;-23.7100;-20.7400;-2.9700
1280.0440;-23.8400;-20.6500;-3.1900
1280.2430;-23.9400;-20.5900;-3.3500
1280.4430;-24.0300;-20.5000;-3.5300
1280.6420;-24.0500;-20.4300;-3.6200
1280.8410;-24.0500;-20.3500;-3.7000
1281.0400;-24.0100;-20.2700;-3.7400
1281.2390;-23.9000;-20.2000;-3.7000
1281.4380;-23.7600;-20.1200;-3.6400
1281.6370;-23.5600;-20.0500;-3.5100
1281.8360;-23.3300;-19.9700;-3.3600
1282.0350;-23.0700;-19.8900;-3.1800
1282.2350;-22.7700;-19.8300;-2.9400
1282.4340;-22.4900;-19.7400;-2.7500
1282.6330;-22.1700;-19.6800;-2.4900
1282.8320;-21.8600;-19.6100;-2.2500
1283.0310;-21.5600;-19.5300;-2.0300
1283.2300;-21.2600;-19.4700;-1.7900
1283.4290;-20.9900;-19.4000;-1.5900
1283.6280;-20.7200;-19.3300;-1.3900
1283.8270;-20.4800;-19.2600;-1.2200
1284.0270;-20.2600;-19.1900;-1.0700
1284.2260;-20.0600;-19.1300;-0.9300
1284.4250;-19.9000;-19.0600;-0.8400
1284.6240;-19.7500;-19.0000;-0.7500
1284.8230;-19.6400;-18.9300;-0.7100
1285.0220;-19.5500;-18.8600;-0.6900
1285.2210;-19.5000;-18.8000;-0.7000
1285.4200;-19.4800;-18.7300;-0.7500
1285.6200;-19.4900;-18.6700;-0.8200
1285.8190;-19.5400;-18.5900;-0.9500
1286.0180;-19.6100;-18.5300;-1.0800
1286.2170;-19.7200;-18.4700;-1.2500
1286.4160;-19.8900;-18.3900;-1.5000
1286.6150;-20.0900;-18.3400;-1.7500
1286.8140;-20.3400;-18.2700;-2.0700
1287.0130;-20.6100;-18.2000;-2.4100
1287.2120;-20.9500;-18.1400;-2.8100
1287.4120;-21.3400;-18.0700;-3.2700
1287.6110;-21.7700;-18.0200;-3.7500
1287.8100;-22.2700;-17.9400;-4.3300
1288.0090;-22.7900;-17.8900;-4.9000
1288.2080;-23.3900;-17.8200;-5.5700
1288.4070;-24.0300;-17.7600;-6.2700
1288.6060;-24.7000;-17.7100;-6.9900
1288.8050;-25.4100;-17.6500;-7.7600
1289.0040;-26.0400;-17.6000;-8.4400
1289.2040;-26.6200;-17.5300;-9.0900
1289.4030;-27.0000;-17.4800;-9.5200
1289.6020;-27.1200;-17.4400;-9.6800
1289.8010;-26.9700;-17.3800;-9.5900
1290.0000;-26.5300;-17.3400;-9.1900
1290.1990;-25.9100;-17.2800;-8.6300
1290.3980;-25.1500;-17.2300;-7.9200
1290.5970;-24.3600;-17.2000;-7.1600
1290.7970;-23.5600;-17.1400;-6.4200
1290.9960;-22.7700;-17.1000;-5.6700
1291.1950;-22.0400;-17.0400;-5.0000
1291.3940;-21.3600;-17.0000;-4.3600
1291.5930;-20.7200;-16.9400;-3.7800
1291.7920;-20.1600;-16.9000;-3.2600
1291.9910;-19.6400;-16.8600;-2.7800
1292.1900;-19.1900;-16.8000;-2.3900
1292.3890;-18.7700;-16.7600;-2.0100
1292.5890;-18.4000;-16.7100;-1.6900
1292.7880;-18.0800;-16.6600;-1.4200
1292.9870;-17.8000;-16.6300;-1.1700
1293.1860;-17.5800;-16.5700;-1.0100
1293.3850;-17.3800;-16.5400;-0.8400
1293.5840;-17.2300;-16.4800;-0.7500
1293.7830;-17.1100;-16.4400;-0.6700
1293.9820;-17.0400;-16.4100;-0.6300
1294.1810;-17.0200;-16.3600;-0.6600
1294.3810;-17.0200;-16.3400;-0.6800
1294.5800;-17.0600;-16.2700;-0.7900
1294.7790;-17.1400;-16.2400;-0.9000
1294.9780;-17.2600;-16.2000;-1.0600
1295.1770;-17.4400;-16.1600;-1.2800
1295.3760;-17.6400;-16.1300;-1.5100
1295.5750;-17.9000;-16.0800;-1.8200
1295.7740;-18.1900;-16.0600;-2.1300
1295.9740;-18.5400;-16.0000;-2.5400
1296.1730;-18.9500;-15.9700;-2.9800
1296.3720;-19.4200;-15.9300;-3.4900
1296.5710;-19.9500;-15.8900;-4.0600
1296.7700;-20.5300;-15.8700;-4.6600
1296.9690;-21.2100;-15.8200;-5.3900
1297.1680;-21.9600;-15.8000;-6.1600
1297.3670;-22.8000;-15.7500;-7.0500
1297.5660;-23.7300;-15.7200;-8.0100
1297.7660;-24.7600;-15.6900;-9.0700
1297.9650;-25.8900;-15.6600;-10.2300
1298.1640;-27.0100;-15.6400;-11.3700
1298.3630;-28.0800;-15.6000;-12.4800
1298.5620;-28.9800;-15.5600;-13.4200
1298.7610;-29.1000;-15.5400;-13.5600
1298.9600;-28.7100;-15.5100;-13.2000
1299.1590;-27.8600;-15.5000;-12.3600
1299.3580;-26.7800;-15.4600;-11.3200
1299.5580;-25.4200;-15.4300;-9.9900
1299.7570;-24.5300;-15.4000;-9.1300
1299.9560;-23.5200;-15.3800;-8.1400
1300.1550;-22.6200;-15.3700;-7.2500
1300.3540;-21.7900;-15.3300;-6.4600
1300.5530;-21.0500;-15.3100;-5.7400
1300.7520;-20.4100;-15.2800;-5.1300
1300.9510;-19.8300;-15.2600;-4.5700
1301.1500;-19.3500;-15.2500;-4.1000
1301.3500;-18.8900;-15.2200;-3.6700
1301.5490;-18.5100;-15.2200;-3.2900
1301.7480;-18.1800;-15.1900;-2.9900
1301.9470;-17.8800;-15.1700;-2.7100
1302.1460;-17.6700;-15.1700;-2.5000
1302.3450;-17.4600;-15.1500;-2.3100
1302.5440;-17.3200;-15.1500;-2.1700
1302.7430;-17.2100;-15.1200;-2.0900
1302.9430;-17.1300;-15.1000;-2.0300
1303.1420;-17.1200;-15.1000;-2.0200
1303.3410;-17.1200;-15.0800;-2.0400
1303.5400;-17.1800;-15.0900;-2.0900
1303.7390;-17.2600;-15.0700;-2.1900
1303.9380;-17.3700;-15.0600;-2.3100
1304.1370;-17.5500;-15.0600;-2.4900
1304.3360;-17.7400;-15.0500;-2.6900
1304.5350;-17.9800;-15.0600;-2.9200
1304.7350;-18.2400;-15.0600;-3.1800
1304.9340;-18.5500;-15.0600;-3.4900
1305.1330;-18.9000;-15.0600;-3.8400
1305.3320;-19.2600;-15.0600;-4.2000
1305.5310;-19.6700;-15.0800;-4.5900
1305.7300;-20.0800;-15.0800;-5.0000
1305.9290;-20.5200;-15.0900;-5.4300
1306.1280;-20.9800;-15.1000;-5.8800
1306.3270;-21.4000;-15.1100;-6.2900
1306.5270;-21.8300;-15.1400;-6.6900
1306.7260;-22.1800;-15.1400;-7.0400
1306.9250;-22.4700;-15.1700;-7.3000
1307.1240;-22.6700;-15.1700;-7.5000
1307.3230;-22.7400;-15.1900;-7.5500
1307.5220;-22.7300;-15.2100;-7.5200
1307.7210;-22.5600;-15.2300;-7.3300
1307.9200;-22.3200;-15.2600;-7.0600
1308.1200;-22.0100;-15.2700;-6.7400
1308.3190;-21.6400;-15.2900;-6.3500
1308.5180;-21.2700;-15.3200;-5.9500
1308.7170;-20.8600;-15.3400;-5.5200
1308.9160;-20.4700;-15.3700;-5.1000
1309.1150;-20.1000;-15.3800;-4.7200
1309.3140;-19.7500;-15.4100;-4.3400
1309.5130;-19.4500;-15.4300;-4.0200
1309.7120;-19.1600;-15.4500;-3.7100
1309.9120;-18.9200;-15.4800;-3.4400
