Wavelength;Intensity_Meas;Intensity_Ref;Difference_dB
1200.0000;-60.8400;-55.6000;-5.2400
1200.1990;-60.8100;-55.5600;-5.2500
1200.3980;-60.8300;-55.5400;-5.2900
1200.5970;-60.8500;-55.5000;-5.3500
1200.7970;-60.8400;-55.4800;-5.3600
1200.9960;-60.8300;-55.4400;-5.3900
1201.1950;-60.8300;-55.3900;-5.4400
1201.3940;-60.8700;-55.3500;-5.5200
1201.5930;-60.8600;-55.3200;-5.5400
1201.7920;-60.7900;-55.2800;-5.5100
1201.9910;-60.7300;-55.2100;-5.5200
1202.1900;-60.7500;-55.1600;-5.5900
1202.3890;-60.7100;-55.1100;-5.6000
1202.5890;-60.6200;-55.0800;-5.5400
1202.7880;-60.5700;-55.0100;-5.5600
1202.9870;-60.5400;-54.9400;-5.6000
1203.1860;-60.5200;-54.8900;-5.6300
1203.3850;-60.4500;-54.8700;-5.5800
1203.5840;-60.3800;-54.8100;-5.5700
1203.7830;-60.3800;-54.7500;-5.6300
1203.9820;-60.3800;-54.7200;-5.6600
1204.1810;-60.3400;-54.6800;-5.6600
1204.3810;-60.2900;-54.6400;-5.6500
1204.5800;-60.2900;-54.6000;-5.6900
1204.7790;-60.3400;-54.5800;-5.7600
1204.9780;-60.3200;-54.5500;-5.7700
1205.1770;-60.2700;-54.5100;-5.7600
1205.3760;-60.2800;-54.4800;-5.8000
1205.5750;-60.2600;-54.4600;-5.8000
1205.7740;-60.2800;-54.4400;-5.8400
1205.9740;-60.2500;-54.4400;-5.8100
1206.1730;-60.1700;-54.4100;-5.7600
1206.3720;-60.1300;-54.3800;-5.7500
1206.5710;-60.1600;-54.3500;-5.8100
1206.7700;-60.0900;-54.3400;-5.7500
1206.9690;-60.0000;-54.3100;-5.6900
1207.1680;-59.9300;-54.2700;-5.6600
1207.3670;-59.9600;-54.2400;-5.7200
1207.5660;-59.9100;-54.2200;-5.6900
1207.7660;-59.8200;-54.1900;-5.6300
1207.9650;-59.7700;-54.1500;-5.6200
1208.1640;-59.7600;-54.0900;-5.6700
1208.3630;-59.7300;-54.0700;-5.6600
1208.5620;-59.6600;-54.0300;-5.6300
1208.7610;-59.6200;-53.9700;-5.6500
1208.9600;-59.5800;-53.9200;-5.6600
1209.1590;-59.5600;-53.8600;-5.7000
1209.3580;-59.5200;-53.8200;-5.7000
1209.5580;-59.4500;-53.7600;-5.6900
1209.7570;-59.4000;-53.7100;-5.6900
1209.9560;-59.3800;-53.6500;-5.7300
1210.1550;-59.3200;-53.6100;-5.7100
1210.3540;-59.2200;-53.5700;-5.6500
1210.5530;-59.1600;-53.4900;-5.6700
1210.7520;-59.1600;-53.4400;-5.7200
1210.9510;-59.0900;-53.4100;-5.6800
1211.1500;-59.0100;-53.3500;-5.6600
1211.3500;-58.9600;-53.3100;-5.6500
1211.5490;-58.9600;-53.2600;-5.7000
1211.7480;-58.9700;-53.2300;-5.7400
1211.9470;-58.9200;-53.2100;-5.7100
1212.1460;-58.8600;-53.1600;-5.7000
1212.3450;-58.9000;-53.1200;-5.7800
1212.5440;-58.9400;-53.1000;-5.8400
1212.7430;-58.9300;-53.0700;-5.8600
1212.9430;-58.9100;-53.0300;-5.8800
1213.1420;-58.9400;-52.9900;-5.9500
1213.3410;-58.9800;-52.9800;-6.0000
1213.5400;-58.9300;-52.9500;-5.9800
1213.7390;-58.9100;-52.9000;-6.0100
1213.9380;-58.8800;-52.8700;-6.0100
1214.1370;-58.8900;-52.8300;-6.0600
1214.3360;-58.8500;-52.8000;-6.0500
1214.5350;-58.7700;-52.7600;-6.0100
1214.7350;-58.7200;-52.7100;-6.0100
1214.9340;-58.6900;-52.6600;-6.0300
1215.1330;-58.6200;-52.6200;-6.0000
1215.3320;-58.5300;-52.5800;-5.9500
1215.5310;-58.4500;-52.5100;-5.9400
1215.7300;-58.4000;-52.4500;-5.9500
1215.9290;-58.3300;-52.4200;-5.9100
1216.1280;-58.2300;-52.3500;-5.8800
1216.3270;-58.1500;-52.2900;-5.8600
1216.5270;-58.0900;-52.2300;-5.8600
1216.7260;-58.0200;-52.1700;-5.8500
1216.9250;-57.9200;-52.1200;-5.8000
1217.1240;-57.8000;-52.0500;-5.7500
1217.3230;-57.7300;-52.0000;-5.7300
1217.5220;-57.6600;-51.9400;-5.7200
1217.7210;-57.5600;-51.8900;-5.6700
1217.9200;-57.4100;-51.8400;-5.5700
1218.1200;-57.3300;-51.7700;-5.5600
1218.3190;-57.2700;-51.7400;-5.5300
1218.5180;-57.1700;-51.6900;-5.4800
1218.7170;-57.0500;-51.6500;-5.4000
1218.9160;-56.9600;-51.6100;-5.3500
1219.1150;-56.9100;-51.5600;-5.3500
1219.3140;-56.8400;-51.5400;-5.3000
1219.5130;-56.7500;-51.5000;-5.2500
1219.7120;-56.7000;-51.4500;-5.2500
1219.9120;-56.6800;-51.4200;-5.2600
1220.1110;-56.6300;-51.3900;-5.2400
1220.3100;-56.5900;-51.3500;-5.2400
1220.5090;-56.5600;-51.3000;-5.2600
1220.7080;-56.5700;-51.2600;-5.3100
1220.9070;-56.5400;-51.2200;-5.3200
1221.1060;-56.5000;-51.1600;-5.3400
1221.3050;-56.4800;-51.1200;-5.3600
1221.5040;-56.4700;-51.0400;-5.4300
1221.7040;-56.4500;-50.9900;-5.4600
1221.9030;-56.4000;-50.9400;-5.4600
1222.1020;-56.3500;-50.8600;-5.4900
1222.3010;-56.3500;-50.8100;-5.5400
1222.5000;-56.3000;-50.7300;-5.5700
1222.6990;-56.2600;-50.6700;-5.5900
1222.8980;-56.2000;-50.5900;-5.6100
1223.0970;-56.1700;-50.5100;-5.6600
1223.2970;-56.1500;-50.4600;-5.6900
1223.4960;-56.0900;-50.3700;-5.7200
1223.6950;-56.0500;-50.3000;-5.7500
1223.8940;-56.0200;-50.2400;-5.7800
1224.0930;-55.9800;-50.1600;-5.8200
1224.2920;-55.9400;-50.1100;-5.8300
1224.4910;-55.8500;-50.0200;-5.8300
1224.6900;-55.8300;-49.9600;-5.8700
1224.8890;-55.7700;-49.9000;-5.8700
1225.0890;-55.7200;-49.8400;-5.8800
1225.2880;-55.6200;-49.7800;-5.8400
1225.4870;-55.5600;-49.7100;-5.8500
1225.6860;-55.4900;-49.6600;-5.8300
1225.8850;-55.3800;-49.6200;-5.7600
1226.0840;-55.2700;-49.5500;-5.7200
1226.2830;-55.1700;-49.5100;-5.6600
1226.4820;-55.0700;-49.4400;-5.6300
1226.6810;-54.9600;-49.4000;-5.5600
1226.8810;-54.8400;-49.3500;-5.4900
1227.0800;-54.7500;-49.2800;-5.4700
1227.2790;-54.6400;-49.2400;-5.4000
1227.4780;-54.5200;-49.1700;-5.3500
1227.6770;-54.4300;-49.1100;-5.3200
1227.8760;-54.3400;-49.0500;-5.2900
1228.0750;-54.2500;-48.9800;-5.2700
1228.2740;-54.1500;-48.9200;-5.2300
1228.4740;-54.0600;-48.8400;-5.2200
1228.6730;-54.0100;-48.7700;-5.2400
1228.8720;-53.9200;-48.7000;-5.2200
1229.0710;-53.8300;-48.6200;-5.2100
1229.2700;-53.7500;-48.5500;-5.2000
1229.4690;-53.6900;-48.4500;-5.2400
1229.6680;-53.6300;-48.3800;-5.2500
1229.8670;-53.5400;-48.3000;-5.2400
1230.0660;-53.4900;-48.2100;-5.2800
1230.2660;-53.4600;-48.1300;-5.3300
1230.4650;-53.4000;-48.0400;-5.3600
1230.6640;-53.3700;-47.9600;-5.4100
1230.8630;-53.3500;-47.8900;-5.4600
1231.0620;-53.3600;-47.8100;-5.5500
1231.2610;-53.3700;-47.7600;-5.6100
1231.4600;-53.3800;-47.6800;-5.7000
1231.6590;-53.4300;-47.6200;-5.8100
1231.8580;-53.4600;-47.5500;-5.9100
1232.0580;-53.4900;-47.5000;-5.9900
1232.2570;-53.5100;-47.4400;-6.0700
1232.4560;-53.5600;-47.3700;-6.1900
1232.6550;-53.6100;-47.3200;-6.2900
1232.8540;-53.6000;-47.2500;-6.3500
1233.0530;-53.6100;-47.2000;-6.4100
1233.2520;-53.6100;-47.1500;-6.4600
1233.4510;-53.5800;-47.0700;-6.5100
1233.6500;-53.5500;-47.0300;-6.5200
1233.8500;-53.4800;-46.9500;-6.5300
1234.0490;-53.4300;-46.8900;-6.5400
1234.2480;-53.3500;-46.8300;-6.5200
1234.4470;-53.2300;-46.7500;-6.4800
1234.6460;-53.1500;-46.6900;-6.4600
1234.8450;-53.0400;-46.6100;-6.4300
1235.0440;-52.9100;-46.5300;-6.3800
1235.2430;-52.7800;-46.4600;-6.3200
1235.4430;-52.6500;-46.3600;-6.2900
1235.6420;-52.5400;-46.2900;-6.2500
1235.8410;-52.3900;-46.1900;-6.2000
1236.0400;-52.2600;-46.1100;-6.1500
1236.2390;-52.1200;-46.0200;-6.1000
1236.4380;-51.9900;-45.9100;-6.0800
1236.6370;-51.8700;-45.8300;-6.0400
1236.8360;-51.7300;-45.7400;-5.9900
1237.0350;-51.6300;-45.6700;-5.9600
1237.2350;-51.5000;-45.5700;-5.9300
1237.4340;-51.3900;-45.4700;-5.9200
1237.6330;-51.3100;-45.3900;-5.9200
1237.8320;-51.2200;-45.3100;-5.9100
1238.0310;-51.1500;-45.2400;-5.9100
1238.2300;-51.0800;-45.1500;-5.9300
1238.4290;-51.0200;-45.0700;-5.9500
1238.6280;-51.0000;-45.0000;-6.0000
1238.8270;-50.9500;-44.9100;-6.0400
1239.0270;-50.9300;-44.8500;-6.0800
1239.2260;-50.9000;-44.7500;-6.1500
1239.4250;-50.8800;-44.6700;-6.2100
1239.6240;-50.8700;-44.6000;-6.2700
1239.8230;-50.8400;-44.5100;-6.3300
1240.0220;-50.8300;-44.4400;-6.3900
1240.2210;-50.7700;-44.3400;-6.4300
1240.4200;-50.7200;-44.2500;-6.4700
1240.6200;-50.6700;-44.1600;-6.5100
1240.8190;-50.5900;-44.0600;-6.5300
1241.0180;-50.4900;-43.9600;-6.5300
1241.2170;-50.3800;-43.8500;-6.5300
1241.4160;-50.2700;-43.7400;-6.5300
1241.6150;-50.1400;-43.6200;-6.5200
1241.8140;-50.0000;-43.5000;-6.5000
1242.0130;-49.8700;-43.4000;-6.4700
1242.2120;-49.7200;-43.2700;-6.4500
1242.4120;-49.5800;-43.1500;-6.4300
1242.6110;-49.4300;-43.0300;-6.4000
1242.8100;-49.3000;-42.9000;-6.4000
1243.0090;-49.1700;-42.7800;-6.3900
1243.2080;-49.0300;-42.6500;-6.3800
1243.4070;-48.9200;-42.5300;-6.3900
1243.6060;-48.8100;-42.4000;-6.4100
1243.8050;-48.7100;-42.2800;-6.4300
1244.0040;-48.6200;-42.1600;-6.4600
1244.2040;-48.5400;-42.0300;-6.5100
1244.4030;-48.4800;-41.9100;-6.5700
1244.6020;-48.4300;-41.7900;-6.6400
1244.8010;-48.4000;-41.6700;-6.7300
1245.0000;-48.3900;-41.5700;-6.8200
1245.1990;-48.3800;-41.4400;-6.9400
1245.3980;-48.4000;-41.3300;-7.0700
1245.5970;-48.4200;-41.2000;-7.2200
1245.7970;-48.4600;-41.0800;-7.3800
1245.9960;-48.5100;-40.9700;-7.5400
1246.1950;-48.5400;-40.8400;-7.7000
1246.3940;-48.5900;-40.7200;-7.8700
1246.5930;-48.6200;-40.5800;-8.0400
1246.7920;-48.6300;-40.4600;-8.1700
1246.9910;-48.6100;-40.3300;-8.2800
1247.1900;-48.5500;-40.1900;-8.3600
1247.3890;-48.4500;-40.0500;-8.4000
1247.5890;-48.2800;-39.9100;-8.3700
1247.7880;-48.0700;-39.7700;-8.3000
1247.9870;-47.8100;-39.6400;-8.1700
1248.1860;-47.4700;-39.4900;-7.9800
1248.3850;-47.1100;-39.3500;-7.7600
1248.5840;-46.7100;-39.2000;-7.5100
1248.7830;-46.2800;-39.0500;-7.2300
1248.9820;-45.8500;-38.9300;-6.9200
1249.1810;-45.3200;-38.7700;-6.5500
1249.3810;-44.9600;-38.6400;-6.3200
1249.5800;-44.5000;-38.5000;-6.0000
1249.7790;-44.0800;-38.3600;-5.7200
1249.9780;-43.6500;-38.2200;-5.4300
1250.1770;-43.2400;-38.0800;-5.1600
1250.3760;-42.8700;-37.9500;-4.9200
1250.5750;-42.4900;-37.8100;-4.6800
1250.7740;-42.1500;-37.6800;-4.4700
1250.9740;-41.8300;-37.5700;-4.2600
1251.1730;-41.5200;-37.4300;-4.0900
1251.3720;-41.2600;-37.3000;-3.9600
1251.5710;-41.0100;-37.1800;-3.8300
1251.7700;-40.7900;-37.0400;-3.7500
1251.9690;-40.5800;-36.9200;-3.6600
1252.1680;-40.4000;-36.7700;-3.6300
1252.3670;-40.2700;-36.6500;-3.6200
1252.5660;-40.1600;-36.5200;-3.6400
1252.7660;-40.0800;-36.3800;-3.7000
1252.9650;-40.0300;-36.2600;-3.7700
1253.1640;-40.0100;-36.1100;-3.9000
1253.3630;-40.0300;-35.9700;-4.0600
1253.5620;-40.0800;-35.8000;-4.2800
1253.7610;-40.1700;-35.6900;-4.4800
1253.9600;-40.3000;-35.5400;-4.7600
1254.1590;-40.4500;-35.4000;-5.0500
1254.3580;-40.6500;-35.2500;-5.4000
1254.5580;-40.8800;-35.1100;-5.7700
1254.7570;-41.1400;-34.9700;-6.1700
1254.9560;-41.4100;-34.8100;-6.6000
1255.1550;-41.7200;-34.6700;-7.0500
1255.3540;-42.0300;-34.5400;-7.4900
1255.5530;-42.3400;-34.4000;-7.9400
1255.7520;-42.6300;-34.2700;-8.3600
1255.9510;-42.8400;-34.1200;-8.7200
1256.1500;-43.0000;-34.0000;-9.0000
1256.3500;-43.0500;-33.8600;-9.1900
1256.5490;-42.9800;-33.7300;-9.2500
1256.7480;-42.7800;-33.6200;-9.1600
1256.9470;-42.4300;-33.4700;-8.9600
1257.1460;-41.9900;-33.3500;-8.6400
1257.3450;-41.4600;-33.2300;-8.2300
1257.5440;-40.8800;-33.1000;-7.7800
1257.7430;-40.2800;-32.9900;-7.2900
1257.9430;-39.6300;-32.8400;-6.7900
1258.1420;-39.0200;-32.7300;-6.2900
1258.3410;-38.4100;-32.5900;-5.8200
1258.5400;-37.8300;-32.4700;-5.3600
1258.7390;-37.2900;-32.3500;-4.9400
1258.9380;-36.7700;-32.2000;-4.5700
1259.1370;-36.3000;-32.0800;-4.2200
1259.3360;-35.7800;-31.9300;-3.8500
1259.5350;-35.4700;-31.8000;-3.6700
1259.7350;-35.1100;-31.6700;-3.4400
1259.9340;-34.7800;-31.5200;-3.2600
1260.1330;-34.5200;-31.4000;-3.1200
1260.3320;-34.2700;-31.2600;-3.0100
1260.5310;-34.1000;-31.1300;-2.9700
1260.7300;-33.9300;-31.0000;-2.9300
1260.9290;-33.8100;-30.8600;-2.9500
1261.1280;-33.7500;-30.7300;-3.0200
1261.3270;-33.7100;-30.5900;-3.1200
1261.5270;-33.7500;-30.4700;-3.2800
1261.7260;-33.8100;-30.3500;-3.4600
1261.9250;-33.9200;-30.2100;-3.7100
1262.1240;-34.1000;-30.0900;-4.0100
1262.3230;-34.3200;-29.9600;-4.3600
1262.5220;-34.6300;-29.8500;-4.7800
1262.7210;-34.9700;-29.7300;-5.2400
1262.9200;-35.3900;-29.6000;-5.7900
1263.1200;-35.9000;-29.4800;-6.4200
1263.3190;-36.4900;-29.3500;-7.1400
1263.5180;-37.2000;-29.2300;-7.9700
1263.7170;-37.9700;-29.1200;-8.8500
1263.9160;-39.0800;-28.9900;-10.0900
1264.1150;-39.8700;-28.8700;-11.0000
1264.3140;-40.8500;-28.7400;-12.1100
1264.5130;-41.7200;-28.6200;-13.1000
1264.7120;-42.2000;-28.5000;-13.7000
1264.9120;-42.0800;-28.3600;-13.7200
1265.1110;-41.3100;-28.2400;-13.0700
1265.3100;-40.1400;-28.1000;-12.0400
1265.5090;-38.8200;-27.9900;-10.8300
1265.7080;-37.4800;-27.8600;-9.6200
1265.9070;-36.2400;-27.7300;-8.5100
1266.1060;-34.8800;-27.6100;-7.2700
1266.3050;-34.0300;-27.4800;-6.5500
1266.5040;-33.0900;-27.3700;-5.7200
1266.7040;-32.2300;-27.2500;-4.9800
1266.9030;-31.4600;-27.1200;-4.3400
1267.1020;-30.7500;-27.0200;-3.7300
1267.3010;-30.1200;-26.8900;-3.2300
1267.5000;-29.5400;-26.7900;-2.7500
1267.6990;-29.0200;-26.6800;-2.3400
1267.8980;-28.5500;-26.5600;-1.9900
1268.0970;-28.1400;-26.4700;-1.6700
1268.2970;-27.7700;-26.3400;-1.4300
1268.4960;-27.4400;-26.2500;-1.1900
1268.6950;-27.1500;-26.1300;-1.0200
1268.8940;-26.8900;-26.0100;-0.8800
1269.0930;-26.6800;-25.9100;-0.7700
1269.2920;-26.5100;-25.8000;-0.7100
1269.4910;-26.3800;-25.7100;-0.6700
1269.6900;-26.2900;-25.5900;-0.7000
1269.8890;-26.2400;-25.4900;-0.7500
1270.0890;-26.2300;-25.3700;-0.8600
1270.2880;-26.2800;-25.2600;-1.0200
1270.4870;-26.3600;-25.1700;-1.1900
1270.6860;-26.4900;-25.0500;-1.4400
1270.8850;-26.6700;-24.9400;-1.7300
1271.0840;-26.9100;-24.8200;-2.0900
1271.2830;-27.2100;-24.7200;-2.4900
1271.4820;-27.5600;-24.6200;-2.9400
1271.6810;-27.9800;-24.5000;-3.4800
1271.8810;-28.4800;-24.4100;-4.0700
1272.0800;-29.0600;-24.2900;-4.7700
1272.2790;-29.7400;-24.1900;-5.5500
1272.4780;-30.5000;-24.0900;-6.4100
1272.6770;-31.4000;-23.9900;-7.4100
1272.8760;-32.4100;-23.9000;-8.5100
1273.0750;-33.6000;-23.7900;-9.8100
1273.2740;-34.9200;-23.7000;-11.2200
1273.4740;-36.3000;-23.6100;-12.6900
1273.6730;-37.5700;-23.5100;-14.0600
1273.8720;-38.3600;-23.4200;-14.9400
1274.0710;-37.9800;-23.3200;-14.6600
1274.2700;-36.7900;-23.2300;-13.5600
1274.4690;-34.9900;-23.1500;-11.8400
1274.6680;-33.6200;-23.0500;-10.5700
1274.8670;-32.1400;-22.9700;-9.1700
1275.0660;-30.8200;-22.8700;-7.9500
1275.2660;-29.6300;-22.7700;-6.8600
1275.4650;-28.5900;-22.6800;-5.9100
1275.6640;-27.6400;-22.5800;-5.0600
1275.8630;-26.8000;-22.5000;-4.3000
1276.0620;-25.9300;-22.3900;-3.5400
1276.2610;-25.3800;-22.3000;-3.0800
1276.4600;-24.8000;-22.2100;-2.5900
1276.6590;-24.2500;-22.1000;-2.1500
1276.8580;-23.8000;-22.0200;-1.7800
1277.0580;-23.3700;-21.9200;-1.4500
1277.2570;-23.0100;-21.8300;-1.1800
1277.4560;-22.6900;-21.7400;-0.9500
1277.6550;-22.4200;-21.6500;-0.7700
1277.8540;-22.2000;-21.5700;-0.6300
1278.0530;-22.0000;-21.4700;-0.5300
1278.2520;-21.8600;-21.3900;-0.4700
1278.4510;-21.7400;-21.3000;-0.4400
1278.6500;-21.6600;-21.2200;-0.4400
1278.8500;-21.6400;-21.1400;-0.5000
1279.0490;-21.6300;-21.0500;-0.5800
1279.2480;-21.6800;-20.9800;-0.7000
1279.4470;-21.7500;-20.8900;-0.8600
1279.6460;-21.8700;-20.8100;-1.0600
1279.8450;-22.0500;-20.7400;-1.3100
1280.0440;-22.2500;-20.6500;-1.6000
1280.2430;-22.5200;-20.5900;-1.9300
1280.4430;-22.8300;-20.5000;-2.3300
1280.6420;-23.1900;-20.4300;-2.7600
1280.8410;-23.6300;-20.3500;-3.2800
1281.0400;-24.1200;-20.2700;-3.8500
1281.2390;-24.7000;-20.2000;-4.5000
1281.4380;-25.3200;-20.1200;-5.2000
1281.6370;-26.0400;-20.0500;-5.9900
1281.8360;-26.8500;-19.9700;-6.8800
1282.0350;-27.7100;-19.8900;-7.8200
1282.2350;-28.8300;-19.8300;-9.0000
1282.4340;-29.5700;-19.7400;-9.8300
1282.6330;-30.3900;-19.6800;-10.7100
1282.8320;-30.9100;-19.6100;-11.3000
1283.0310;-31.0100;-19.5300;-11.4800
1283.2300;-30.6300;-19.4700;-11.1600
1283.4290;-29.8500;-19.4000;-10.4500
1283.6280;-28.8700;-19.3300;-9.5400
1283.8270;-27.7900;-19.2600;-8.5300
1284.0270;-26.7400;-19.1900;-7.5500
1284.2260;-25.5800;-19.1300;-6.4500
1284.4250;-24.8500;-19.0600;-5.7900
1284.6240;-24.0300;-19.0000;-5.0300
1284.8230;-23.2500;-18.9300;-4.3200
1285.0220;-22.5700;-18.8600;-3.7100
1285.2210;-21.9400;-18.8000;-3.1400
1285.4200;-21.3900;-18.7300;-2.6600
1285.6200;-20.8800;-18.6700;-2.2100
1285.8190;-20.4400;-18.5900;-1.8500
1286.0180;-20.0500;-18.5300;-1.5200
1286.2170;-19.7000;-18.4700;-1.2300
1286.4160;-19.4100;-18.3900;-1.0200
1286.6150;-19.1700;-18.3400;-0.8300
1286.8140;-18.9800;-18.2700;-0.7100
1287.0130;-18.8400;-18.2000;-0.6400
1287.2120;-18.7300;-18.1400;-0.5900
1287.4120;-18.6800;-18.0700;-0.6100
1287.6110;-18.6400;-18.0200;-0.6200
1287.8100;-18.6600;-17.9400;-0.7200
1288.0090;-18.7300;-17.8900;-0.8400
1288.2080;-18.8300;-17.8200;-1.0100
1288.4070;-18.9900;-17.7600;-1.2300
1288.6060;-19.1800;-17.7100;-1.4700
1288.8050;-19.4300;-17.6500;-1.7800
1289.0040;-19.7300;-17.6000;-2.1300
1289.2040;-20.0800;-17.5300;-2.5500
1289.4030;-20.5000;-17.4800;-3.0200
1289.6020;-20.9500;-17.4400;-3.5100
1289.8010;-21.4800;-17.3800;-4.1000
1290.0000;-22.0600;-17.3400;-4.7200
1290.1990;-22.7000;-17.2800;-5.4200
1290.3980;-23.4000;-17.2300;-6.1700
1290.5970;-24.1400;-17.2000;-6.9400
1290.7970;-24.9000;-17.1400;-7.7600
1290.9960;-25.6000;-17.1000;-8.5000
1291.1950;-26.1800;-17.0400;-9.1400
1291.3940;-26.5500;-17.0000;-9.5500
1291.5930;-26.6100;-16.9400;-9.6700
1291.7920;-26.3700;-16.9000;-9.4700
1291.9910;-25.8500;-16.8600;-8.9900
1292.1900;-25.1200;-16.8000;-8.3200
1292.3890;-24.3000;-16.7600;-7.5400
1292.5890;-23.4500;-16.7100;-6.7400
1292.7880;-22.6500;-16.6600;-5.9900
1292.9870;-21.8800;-16.6300;-5.2500
1293.1860;-21.1900;-16.5700;-4.6200
1293.3850;-20.5300;-16.5400;-3.9900
1293.5840;-19.9100;-16.4800;-3.4300
1293.7830;-19.3600;-16.4400;-2.9200
1293.9820;-18.8700;-16.4100;-2.4600
1294.1810;-18.4500;-16.3600;-2.0900
1294.3810;-18.0800;-16.3400;-1.7400
1294.5800;-17.7500;-16.2700;-1.4800
1294.7790;-17.4900;-16.2400;-1.2500
1294.9780;-17.2400;-16.2000;-1.0400
1295.1770;-17.0400;-16.1600;-0.8800
1295.3760;-16.8800;-16.1300;-0.7500
1295.5750;-16.7600;-16.0800;-0.6800
1295.7740;-16.7000;-16.0600;-0.6400
1295.9740;-16.6500;-16.0000;-0.6500
1296.1730;-16.6600;-15.9700;-0.6900
1296.3720;-16.6900;-15.9300;-0.7600
1296.5710;-16.7500;-15.8900;-0.8600
1296.7700;-16.8700;-15.8700;-1.0000
1296.9690;-17.0100;-15.8200;-1.1900
1297.1680;-17.2100;-15.8000;-1.4100
1297.3670;-17.4200;-15.7500;-1.6700
1297.5660;-17.6700;-15.7200;-1.9500
1297.7660;-17.9600;-15.6900;-2.2700
1297.9650;-18.2800;-15.6600;-2.6200
1298.1640;-18.6400;-15.6400;-3.0000
1298.3630;-19.0100;-15.6000;-3.4100
1298.5620;-19.4100;-15.5600;-3.8500
1298.7610;-19.8200;-15.5400;-4.2800
1298.9600;-20.2400;-15.5100;-4.7300
1299.1590;-20.6400;-15.5000;-5.1400
1299.3580;-20.9700;-15.4600;-5.5100
1299.5580;-21.2300;-15.4300;-5.8000
1299.7570;-21.4000;-15.4000;-6.0000
1299.9560;-21.4900;-15.3800;-6.1100
1300.1550;-21.4900;-15.3700;-6.1200
1300.3540;-21.3500;-15.3300;-6.0200
1300.5530;-21.0800;-15.3100;-5.7700
1300.7520;-20.7000;-15.2800;-5.4200
1300.9510;-20.2700;-15.2600;-5.0100
1301.1500;-19.8400;-15.2500;-4.5900
1301.3500;-19.4100;-15.2200;-4.1900
1301.5490;-19.0200;-15.2200;-3.8000
1301.7480;-18.5900;-15.1900;-3.4000
1301.9470;-18.1800;-15.1700;-3.0100
1302.1460;-17.7700;-15.1700;-2.6000
1302.3450;-17.3800;-15.1500;-2.2300
1302.5440;-17.0600;-15.1500;-1.9100
1302.7430;-16.7600;-15.1200;-1.6400
1302.9430;-16.5100;-15.1000;-1.4100
1303.1420;-16.2800;-15.1000;-1.1800
1303.3410;-16.0700;-15.0800;-0.9900
1303.5400;-15.9500;-15.0900;-0.8600
1303.7390;-15.8300;-15.0700;-0.7600
1303.9380;-15.7400;-15.0600;-0.6800
1304.1370;-15.7000;-15.0600;-0.6400
1304.3360;-15.7100;-15.0500;-0.6600
1304.5350;-15.7300;-15.0600;-0.6700
1304.7350;-15.8000;-15.0600;-0.7400
1304.9340;-15.9000;-15.0600;-0.8400
1305.1330;-16.0400;-15.0600;-0.9800
1305.3320;-16.2300;-15.0600;-1.1700
1305.5310;-16.4600;-15.0800;-1.3800
1305.7300;-16.7200;-15.0800;-1.6400
1305.9290;-17.0100;-15.0900;-1.9200
1306.1280;-17.3800;-15.1000;-2.2800
1306.3270;-17.7800;-15.1100;-2.6700
1306.5270;-18.3400;-15.1400;-3.2000
1306.7260;-18.7700;-15.1400;-3.6300
1306.9250;-19.3300;-15.1700;-4.1600
1307.1240;-19.9700;-15.1700;-4.8000
1307.3230;-20.6400;-15.1900;-5.4500
1307.5220;-21.3900;-15.2100;-6.1800
1307.7210;-22.1800;-15.2300;-6.9500
1307.9200;-22.9800;-15.2600;-7.7200
1308.1200;-23.7900;-15.2700;-8.5200
1308.3190;-24.4900;-15.2900;-9.2000
1308.5180;-25.0400;-15.3200;-9.7200
1308.7170;-25.3300;-15.3400;-9.9900
1308.9160;-25.2900;-15.3700;-9.9200
1309.1150;-24.9800;-15.3800;-9.6000
1309.3140;-24.4200;-15.4100;-9.0100
1309.5130;-23.7500;-15.4300;-8.3200
1309.7120;-23.0100;-15.4500;-7.5600
1309.9120;-22.2700;-15.4800;-6.7900
