Wavelength;Intensity_Meas;Intensity_Ref;Difference_dB
1200.0000;-60.4100;-55.6000;-4.8100
1200.1990;-60.3400;-55.5600;-4.7800
1200.3980;-60.3500;-55.5400;-4.8100
1200.5970;-60.3500;-55.5000;-4.8500
1200.7970;-60.2900;-55.4800;-4.8100
1200.9960;-60.2300;-55.4400;-4.7900
1201.1950;-60.1900;-55.3900;-4.8000
1201.3940;-60.2200;-55.3500;-4.8700
1201.5930;-60.2100;-55.3200;-4.8900
1201.7920;-60.1400;-55.2800;-4.8600
1201.9910;-60.1000;-55.2100;-4.8900
1202.1900;-60.1000;-55.1600;-4.9400
1202.3890;-60.1100;-55.1100;-5.0000
1202.5890;-60.0500;-55.0800;-4.9700
1202.7880;-59.9700;-55.0100;-4.9600
1202.9870;-59.9700;-54.9400;-5.0300
1203.1860;-59.9400;-54.8900;-5.0500
1203.3850;-59.9200;-54.8700;-5.0500
1203.5840;-59.8000;-54.8100;-4.9900
1203.7830;-59.7700;-54.7500;-5.0200
1203.9820;-59.7700;-54.7200;-5.0500
1204.1810;-59.7600;-54.6800;-5.0800
1204.3810;-59.7000;-54.6400;-5.0600
1204.5800;-59.6300;-54.6000;-5.0300
1204.7790;-59.6600;-54.5800;-5.0800
1204.9780;-59.6600;-54.5500;-5.1100
1205.1770;-59.5900;-54.5100;-5.0800
1205.3760;-59.5400;-54.4800;-5.0600
1205.5750;-59.5500;-54.4600;-5.0900
1205.7740;-59.5500;-54.4400;-5.1100
1205.9740;-59.5400;-54.4400;-5.1000
1206.1730;-59.4700;-54.4100;-5.0600
1206.3720;-59.4200;-54.3800;-5.0400
1206.5710;-59.4500;-54.3500;-5.1000
1206.7700;-59.4200;-54.3400;-5.0800
1206.9690;-59.3100;-54.3100;-5.0000
1207.1680;-59.2300;-54.2700;-4.9600
1207.3670;-59.2600;-54.2400;-5.0200
1207.5660;-59.2100;-54.2200;-4.9900
1207.7660;-59.0900;-54.1900;-4.9000
1207.9650;-59.0400;-54.1500;-4.8900
1208.1640;-59.0100;-54.0900;-4.9200
1208.3630;-58.9800;-54.0700;-4.9100
1208.5620;-58.8700;-54.0300;-4.8400
1208.7610;-58.7800;-53.9700;-4.8100
1208.9600;-58.7800;-53.9200;-4.8600
1209.1590;-58.7500;-53.8600;-4.8900
1209.3580;-58.6600;-53.8200;-4.8400
1209.5580;-58.5900;-53.7600;-4.8300
1209.7570;-58.5500;-53.7100;-4.8400
1209.9560;-58.5500;-53.6500;-4.9000
1210.1550;-58.4900;-53.6100;-4.8800
1210.3540;-58.4000;-53.5700;-4.8300
1210.5530;-58.3700;-53.4900;-4.8800
1210.7520;-58.3800;-53.4400;-4.9400
1210.9510;-58.3700;-53.4100;-4.9600
1211.1500;-58.2600;-53.3500;-4.9100
1211.3500;-58.2200;-53.3100;-4.9100
1211.5490;-58.2600;-53.2600;-5.0000
1211.7480;-58.2300;-53.2300;-5.0000
1211.9470;-58.1600;-53.2100;-4.9500
1212.1460;-58.1100;-53.1600;-4.9500
1212.3450;-58.1500;-53.1200;-5.0300
1212.5440;-58.1500;-53.1000;-5.0500
1212.7430;-58.0800;-53.0700;-5.0100
1212.9430;-58.0400;-53.0300;-5.0100
1213.1420;-58.0400;-52.9900;-5.0500
1213.3410;-58.0600;-52.9800;-5.0800
1213.5400;-57.9900;-52.9500;-5.0400
1213.7390;-57.9200;-52.9000;-5.0200
1213.9380;-57.9000;-52.8700;-5.0300
1214.1370;-57.8900;-52.8300;-5.0600
1214.3360;-57.8300;-52.8000;-5.0300
1214.5350;-57.7300;-52.7600;-4.9700
1214.7350;-57.6800;-52.7100;-4.9700
1214.9340;-57.6700;-52.6600;-5.0100
1215.1330;-57.5800;-52.6200;-4.9600
1215.3320;-57.4500;-52.5800;-4.8700
1215.5310;-57.3800;-52.5100;-4.8700
1215.7300;-57.3700;-52.4500;-4.9200
1215.9290;-57.2700;-52.4200;-4.8500
1216.1280;-57.1400;-52.3500;-4.7900
1216.3270;-57.0800;-52.2900;-4.7900
1216.5270;-57.0500;-52.2300;-4.8200
1216.7260;-56.9800;-52.1700;-4.8100
1216.9250;-56.8600;-52.1200;-4.7400
1217.1240;-56.7800;-52.0500;-4.7300
1217.3230;-56.7800;-52.0000;-4.7800
1217.5220;-56.7300;-51.9400;-4.7900
1217.7210;-56.6400;-51.8900;-4.7500
1217.9200;-56.5700;-51.8400;-4.7300
1218.1200;-56.5700;-51.7700;-4.8000
1218.3190;-56.5700;-51.7400;-4.8300
1218.5180;-56.4900;-51.6900;-4.8000
1218.7170;-56.4500;-51.6500;-4.8000
1218.9160;-56.4800;-51.6100;-4.8700
1219.1150;-56.4800;-51.5600;-4.9200
1219.3140;-56.4600;-51.5400;-4.9200
1219.5130;-56.4400;-51.5000;-4.9400
1219.7120;-56.4900;-51.4500;-5.0400
1219.9120;-56.5300;-51.4200;-5.1100
1220.1110;-56.5200;-51.3900;-5.1300
1220.3100;-56.5200;-51.3500;-5.1700
1220.5090;-56.5600;-51.3000;-5.2600
1220.7080;-56.6100;-51.2600;-5.3500
1220.9070;-56.6200;-51.2200;-5.4000
1221.1060;-56.6000;-51.1600;-5.4400
1221.3050;-56.6400;-51.1200;-5.5200
1221.5040;-56.6500;-51.0400;-5.6100
1221.7040;-56.6300;-50.9900;-5.6400
1221.9030;-56.5800;-50.9400;-5.6400
1222.1020;-56.5700;-50.8600;-5.7100
1222.3010;-56.5700;-50.8100;-5.7600
1222.5000;-56.4800;-50.7300;-5.7500
1222.6990;-56.3700;-50.6700;-5.7000
1222.8980;-56.3200;-50.5900;-5.7300
1223.0970;-56.2300;-50.5100;-5.7200
1223.2970;-56.1300;-50.4600;-5.6700
1223.4960;-55.9600;-50.3700;-5.5900
1223.6950;-55.8300;-50.3000;-5.5300
1223.8940;-55.7400;-50.2400;-5.5000
1224.0930;-55.5800;-50.1600;-5.4200
1224.2920;-55.4200;-50.1100;-5.3100
1224.4910;-55.2800;-50.0200;-5.2600
1224.6900;-55.1900;-49.9600;-5.2300
1224.8890;-55.0200;-49.9000;-5.1200
1225.0890;-54.8600;-49.8400;-5.0200
1225.2880;-54.7400;-49.7800;-4.9600
1225.4870;-54.6200;-49.7100;-4.9100
1225.6860;-54.5000;-49.6600;-4.8400
1225.8850;-54.3500;-49.6200;-4.7300
1226.0840;-54.2400;-49.5500;-4.6900
1226.2830;-54.1700;-49.5100;-4.6600
1226.4820;-54.0400;-49.4400;-4.6000
1226.6810;-53.9400;-49.4000;-4.5400
1226.8810;-53.8600;-49.3500;-4.5100
1227.0800;-53.8000;-49.2800;-4.5200
1227.2790;-53.7500;-49.2400;-4.5100
1227.4780;-53.6600;-49.1700;-4.4900
1227.6770;-53.6400;-49.1100;-4.5300
1227.8760;-53.6300;-49.0500;-4.5800
1228.0750;-53.5900;-48.9800;-4.6100
1228.2740;-53.5600;-48.9200;-4.6400
1228.4740;-53.5500;-48.8400;-4.7100
1228.6730;-53.5800;-48.7700;-4.8100
1228.8720;-53.5700;-48.7000;-4.8700
1229.0710;-53.5500;-48.6200;-4.9300
1229.2700;-53.6000;-48.5500;-5.0500
1229.4690;-53.6100;-48.4500;-5.1600
1229.6680;-53.6100;-48.3800;-5.2300
1229.8670;-53.5900;-48.3000;-5.2900
1230.0660;-53.6000;-48.2100;-5.3900
1230.2660;-53.6300;-48.1300;-5.5000
1230.4650;-53.5800;-48.0400;-5.5400
1230.6640;-53.5400;-47.9600;-5.5800
1230.8630;-53.5500;-47.8900;-5.6600
1231.0620;-53.5300;-47.8100;-5.7200
1231.2610;-53.4800;-47.7600;-5.7200
1231.4600;-53.4100;-47.6800;-5.7300
1231.6590;-53.3700;-47.6200;-5.7500
1231.8580;-53.3000;-47.5500;-5.7500
1232.0580;-53.2000;-47.5000;-5.7000
1232.2570;-53.1000;-47.4400;-5.6600
1232.4560;-53.0200;-47.3700;-5.6500
1232.6550;-52.9200;-47.3200;-5.6000
1232.8540;-52.7800;-47.2500;-5.5300
1233.0530;-52.6600;-47.2000;-5.4600
1233.2520;-52.5600;-47.1500;-5.4100
1233.4510;-52.4200;-47.0700;-5.3500
1233.6500;-52.2800;-47.0300;-5.2500
1233.8500;-52.1600;-46.9500;-5.2100
1234.0490;-52.0600;-46.8900;-5.1700
1234.2480;-51.9400;-46.8300;-5.1100
1234.4470;-51.8000;-46.7500;-5.0500
1234.6460;-51.7100;-46.6900;-5.0200
1234.8450;-51.6300;-46.6100;-5.0200
1235.0440;-51.5200;-46.5300;-4.9900
1235.2430;-51.4400;-46.4600;-4.9800
1235.4430;-51.3700;-46.3600;-5.0100
1235.6420;-51.3200;-46.2900;-5.0300
1235.8410;-51.2400;-46.1900;-5.0500
1236.0400;-51.1900;-46.1100;-5.0800
1236.2390;-51.1700;-46.0200;-5.1500
1236.4380;-51.1300;-45.9100;-5.2200
1236.6370;-51.0900;-45.8300;-5.2600
1236.8360;-51.0500;-45.7400;-5.3100
1237.0350;-51.0500;-45.6700;-5.3800
1237.2350;-51.0300;-45.5700;-5.4600
1237.4340;-50.9800;-45.4700;-5.5100
1237.6330;-50.9800;-45.3900;-5.5900
1237.8320;-50.9700;-45.3100;-5.6600
1238.0310;-50.9200;-45.2400;-5.6800
1238.2300;-50.8900;-45.1500;-5.7400
1238.4290;-50.8400;-45.0700;-5.7700
1238.6280;-50.8200;-45.0000;-5.8200
1238.8270;-50.7400;-44.9100;-5.8300
1239.0270;-50.6800;-44.8500;-5.8300
1239.2260;-50.6200;-44.7500;-5.8700
1239.4250;-50.5300;-44.6700;-5.8600
1239.6240;-50.4400;-44.6000;-5.8400
1239.8230;-50.3200;-44.5100;-5.8100
1240.0220;-50.2300;-44.4400;-5.7900
1240.2210;-50.1200;-44.3400;-5.7800
1240.4200;-49.9600;-44.2500;-5.7100
1240.6200;-49.8500;-44.1600;-5.6900
1240.8190;-49.7100;-44.0600;-5.6500
1241.0180;-49.5600;-43.9600;-5.6000
1241.2170;-49.4100;-43.8500;-5.5600
1241.4160;-49.2700;-43.7400;-5.5300
1241.6150;-49.1500;-43.6200;-5.5300
1241.8140;-49.0100;-43.5000;-5.5100
1242.0130;-48.8900;-43.4000;-5.4900
1242.2120;-48.8000;-43.2700;-5.5300
1242.4120;-48.7100;-43.1500;-5.5600
1242.6110;-48.6300;-43.0300;-5.6000
1242.8100;-48.5600;-42.9000;-5.6600
1243.0090;-48.5300;-42.7800;-5.7500
1243.2080;-48.5100;-42.6500;-5.8600
1243.4070;-48.4900;-42.5300;-5.9600
1243.6060;-48.5000;-42.4000;-6.1000
1243.8050;-48.5200;-42.2800;-6.2400
1244.0040;-48.5500;-42.1600;-6.3900
1244.2040;-48.5900;-42.0300;-6.5600
1244.4030;-48.6400;-41.9100;-6.7300
1244.6020;-48.6900;-41.7900;-6.9000
1244.8010;-48.7100;-41.6700;-7.0400
1245.0000;-48.7400;-41.5700;-7.1700
1245.1990;-48.7600;-41.4400;-7.3200
1245.3980;-48.7300;-41.3300;-7.4000
1245.5970;-48.6700;-41.2000;-7.4700
1245.7970;-48.5800;-41.0800;-7.5000
1245.9960;-48.4400;-40.9700;-7.4700
1246.1950;-48.2600;-40.8400;-7.4200
1246.3940;-48.0400;-40.7200;-7.3200
1246.5930;-47.8000;-40.5800;-7.2200
1246.7920;-47.4900;-40.4600;-7.0300
1246.9910;-47.1500;-40.3300;-6.8200
1247.1900;-46.8000;-40.1900;-6.6100
1247.3890;-46.4300;-40.0500;-6.3800
1247.5890;-46.0500;-39.9100;-6.1400
1247.7880;-45.5800;-39.7700;-5.8100
1247.9870;-45.2700;-39.6400;-5.6300
1248.1860;-44.8700;-39.4900;-5.3800
1248.3850;-44.5000;-39.3500;-5.1500
1248.5840;-44.1300;-39.2000;-4.9300
1248.7830;-43.7800;-39.0500;-4.7300
1248.9820;-43.4700;-38.9300;-4.5400
1249.1810;-43.1500;-38.7700;-4.3800
1249.3810;-42.8800;-38.6400;-4.2400
1249.5800;-42.6200;-38.5000;-4.1200
1249.7790;-42.3900;-38.3600;-4.0300
1249.9780;-42.2000;-38.2200;-3.9800
1250.1770;-42.0300;-38.0800;-3.9500
1250.3760;-41.9000;-37.9500;-3.9500
1250.5750;-41.7900;-37.8100;-3.9800
1250.7740;-41.7200;-37.6800;-4.0400
1250.9740;-41.7000;-37.5700;-4.1300
1251.1730;-41.6800;-37.4300;-4.2500
1251.3720;-41.7100;-37.3000;-4.4100
1251.5710;-41.7900;-37.1800;-4.6100
1251.7700;-41.8800;-37.0400;-4.8400
1251.9690;-42.0200;-36.9200;-5.1000
1252.1680;-42.1700;-36.7700;-5.4000
1252.3670;-42.3600;-36.6500;-5.7100
1252.5660;-42.5800;-36.5200;-6.0600
1252.7660;-42.8200;-36.3800;-6.4400
1252.9650;-43.1200;-36.2600;-6.8600
1253.1640;-43.3900;-36.1100;-7.2800
1253.3630;-43.6800;-35.9700;-7.7100
1253.5620;-43.9700;-35.8000;-8.1700
1253.7610;-44.2100;-35.6900;-8.5200
1253.9600;-44.4300;-35.5400;-8.8900
1254.1590;-44.5400;-35.4000;-9.1400
1254.3580;-44.5600;-35.2500;-9.3100
1254.5580;-44.4600;-35.1100;-9.3500
1254.7570;-44.2300;-34.9700;-9.2600
1254.9560;-43.8900;-34.8100;-9.0800
1255.1550;-43.4400;-34.6700;-8.7700
1255.3540;-42.9200;-34.5400;-8.3800
1255.5530;-42.3500;-34.4000;-7.9500
1255.7520;-41.7400;-34.2700;-7.4700
1255.9510;-41.1500;-34.1200;-7.0300
1256.1500;-40.5500;-34.0000;-6.5500
1256.3500;-39.9800;-33.8600;-6.1200
1256.5490;-39.4300;-33.7300;-5.7000
1256.7480;-38.9200;-33.6200;-5.3000
1256.9470;-38.4400;-33.4700;-4.9700
1257.1460;-38.0000;-33.3500;-4.6500
1257.3450;-37.6000;-33.2300;-4.3700
1257.5440;-37.2200;-33.1000;-4.1200
1257.7430;-36.8900;-32.9900;-3.9000
1257.9430;-36.5900;-32.8400;-3.7500
1258.1420;-36.3300;-32.7300;-3.6000
1258.3410;-36.1200;-32.5900;-3.5300
1258.5400;-35.8900;-32.4700;-3.4200
1258.7390;-35.7700;-32.3500;-3.4200
1258.9380;-35.6400;-32.2000;-3.4400
1259.1370;-35.5600;-32.0800;-3.4800
1259.3360;-35.5000;-31.9300;-3.5700
1259.5350;-35.4800;-31.8000;-3.6800
1259.7350;-35.5100;-31.6700;-3.8400
1259.9340;-35.5500;-31.5200;-4.0300
1260.1330;-35.6500;-31.4000;-4.2500
1260.3320;-35.7800;-31.2600;-4.5200
1260.5310;-35.9600;-31.1300;-4.8300
1260.7300;-36.1800;-31.0000;-5.1800
1260.9290;-36.4300;-30.8600;-5.5700
1261.1280;-36.7100;-30.7300;-5.9800
1261.3270;-37.0400;-30.5900;-6.4500
1261.5270;-37.4000;-30.4700;-6.9300
1261.7260;-37.7700;-30.3500;-7.4200
1261.9250;-38.2100;-30.2100;-8.0000
1262.1240;-38.4900;-30.0900;-8.4000
1262.3230;-38.7600;-29.9600;-8.8000
1262.5220;-38.9600;-29.8500;-9.1100
1262.7210;-38.9800;-29.7300;-9.2500
1262.9200;-38.8500;-29.6000;-9.2500
1263.1200;-38.5600;-29.4800;-9.0800
1263.3190;-38.1000;-29.3500;-8.7500
1263.5180;-37.5500;-29.2300;-8.3200
1263.7170;-36.8900;-29.1200;-7.7700
1263.9160;-36.1900;-28.9900;-7.2000
1264.1150;-35.3700;-28.8700;-6.5000
1264.3140;-34.7800;-28.7400;-6.0400
1264.5130;-34.1300;-28.6200;-5.5100
1264.7120;-33.4600;-28.5000;-4.9600
1264.9120;-32.8500;-28.3600;-4.4900
1265.1110;-32.2600;-28.2400;-4.0200
1265.3100;-31.7100;-28.1000;-3.6100
1265.5090;-31.2300;-27.9900;-3.2400
1265.7080;-30.7600;-27.8600;-2.9000
1265.9070;-30.3400;-27.7300;-2.6100
1266.1060;-29.9400;-27.6100;-2.3300
1266.3050;-29.5900;-27.4800;-2.1100
1266.5040;-29.3000;-27.3700;-1.9300
1266.7040;-29.0100;-27.2500;-1.7600
1266.9030;-28.7800;-27.1200;-1.6600
1267.1020;-28.5700;-27.0200;-1.5500
1267.3010;-28.4100;-26.8900;-1.5200
1267.5000;-28.3000;-26.7900;-1.5100
1267.6990;-28.1900;-26.6800;-1.5100
1267.8980;-28.1400;-26.5600;-1.5800
1268.0970;-28.1200;-26.4700;-1.6500
1268.2970;-28.1300;-26.3400;-1.7900
1268.4960;-28.1900;-26.2500;-1.9400
1268.6950;-28.2600;-26.1300;-2.1300
1268.8940;-28.3800;-26.0100;-2.3700
1269.0930;-28.5100;-25.9100;-2.6000
1269.2920;-28.6900;-25.8000;-2.8900
1269.4910;-28.9100;-25.7100;-3.2000
1269.6900;-29.1500;-25.5900;-3.5600
1269.8890;-29.4300;-25.4900;-3.9400
1270.0890;-29.7100;-25.3700;-4.3400
1270.2880;-30.0300;-25.2600;-4.7700
1270.4870;-30.3800;-25.1700;-5.2100
1270.6860;-30.7200;-25.0500;-5.6700
1270.8850;-31.0700;-24.9400;-6.1300
1271.0840;-31.3700;-24.8200;-6.5500
1271.2830;-31.6400;-24.7200;-6.9200
1271.4820;-31.8400;-24.6200;-7.2200
1271.6810;-31.9400;-24.5000;-7.4400
1271.8810;-31.9600;-24.4100;-7.5500
1272.0800;-31.8300;-24.2900;-7.5400
1272.2790;-31.6000;-24.1900;-7.4100
1272.4780;-31.2600;-24.0900;-7.1700
1272.6770;-30.8500;-23.9900;-6.8600
1272.8760;-30.4000;-23.9000;-6.5000
1273.0750;-29.8900;-23.7900;-6.1000
1273.2740;-29.3900;-23.7000;-5.6900
1273.4740;-28.8700;-23.6100;-5.2600
1273.6730;-28.3800;-23.5100;-4.8700
1273.8720;-27.9200;-23.4200;-4.5000
1274.0710;-27.4600;-23.3200;-4.1400
1274.2700;-27.0600;-23.2300;-3.8300
1274.4690;-26.6600;-23.1500;-3.5100
1274.6680;-26.3000;-23.0500;-3.2500
1274.8670;-25.9300;-22.9700;-2.9600
1275.0660;-25.7000;-22.8700;-2.8300
1275.2660;-25.4300;-22.7700;-2.6600
1275.4650;-25.2100;-22.6800;-2.5300
1275.6640;-25.0200;-22.5800;-2.4400
1275.8630;-24.8400;-22.5000;-2.3400
1276.0620;-24.7000;-22.3900;-2.3100
1276.2610;-24.6000;-22.3000;-2.3000
1276.4600;-24.5100;-22.2100;-2.3000
1276.6590;-24.4700;-22.1000;-2.3700
1276.8580;-24.4300;-22.0200;-2.4100
1277.0580;-24.4500;-21.9200;-2.5300
1277.2570;-24.4700;-21.8300;-2.6400
1277.4560;-24.5200;-21.7400;-2.7800
1277.6550;-24.6100;-21.6500;-2.9600
1277.8540;-24.7000;-21.5700;-3.1300
1278.0530;-24.8200;-21.4700;-3.3500
1278.2520;-24.9300;-21.3900;-3.5400
1278.4510;-25.0600;-21.3000;-3.7600
1278.6500;-25.2000;-21.2200;-3.9800
1278.8500;-25.3100;-21.1400;-4.1700
1279.0490;-25.4200;-21.0500;-4.3700
1279.2480;-25.4900;-20.9800;-4.5100
1279.4470;-25.5400;-20.8900;-4.6500
1279.6460;-25.5400;-20.8100;-4.7300
1279.8450;-25.4800;-20.7400;-4.7400
1280.0440;-25.3800;-20.6500;-4.7300
1280.2430;-25.2100;-20.5900;-4.6200
1280.4430;-24.9900;-20.5000;-4.4900
1280.6420;-24.7400;-20.4300;-4.3100
1280.8410;-24.4200;-20.3500;-4.0700
1281.0400;-24.1000;-20.2700;-3.8300
1281.2390;-23.7300;-20.2000;-3.5300
1281.4380;-23.3600;-20.1200;-3.2400
1281.6370;-22.9800;-20.0500;-2.9300
1281.8360;-22.6000;-19.9700;-2.6300
1282.0350;-22.2500;-19.8900;-2.3600
1282.2350;-21.8800;-19.8300;-2.0500
1282.4340;-21.5500;-19.7400;-1.8100
1282.6330;-21.2500;-19.6800;-1.5700
1282.8320;-20.9500;-19.6100;-1.3400
1283.0310;-20.7000;-19.5300;-1.1700
1283.2300;-20.4600;-19.4700;-0.9900
1283.4290;-20.2500;-19.4000;-0.8500
1283.6280;-20.0700;-19.3300;-0.7400
1283.8270;-19.9200;-19.2600;-0.6600
1284.0270;-19.8100;-19.1900;-0.6200
1284.2260;-19.7200;-19.1300;-0.5900
1284.4250;-19.6800;-19.0600;-0.6200
1284.6240;-19.6500;-19.0000;-0.6500
1284.8230;-19.6700;-18.9300;-0.7400
1285.0220;-19.7400;-18.8600;-0.8800
1285.2210;-19.8300;-18.8000;-1.0300
1285.4200;-19.9700;-18.7300;-1.2400
1285.6200;-20.1400;-18.6700;-1.4700
1285.8190;-20.3600;-18.5900;-1.7700
1286.0180;-20.6300;-18.5300;-2.1000
1286.2170;-20.9500;-18.4700;-2.4800
1286.4160;-21.3400;-18.3900;-2.9500
1286.6150;-21.7900;-18.3400;-3.4500
1286.8140;-22.3100;-18.2700;-4.0400
1287.0130;-22.9100;-18.2000;-4.7100
1287.2120;-23.5900;-18.1400;-5.4500
1287.4120;-24.3900;-18.0700;-6.3200
1287.6110;-25.2900;-18.0200;-7.2700
1287.8100;-26.3300;-17.9400;-8.3900
1288.0090;-27.5200;-17.8900;-9.6300
1288.2080;-29.1200;-17.8200;-11.3000
1288.4070;-30.2600;-17.7600;-12.5000
1288.6060;-31.5300;-17.7100;-13.8200
1288.8050;-32.3000;-17.6500;-14.6500
1289.0040;-32.1000;-17.6000;-14.5000
1289.2040;-31.0500;-17.5300;-13.5200
1289.4030;-29.5700;-17.4800;-12.0900
1289.6020;-28.0500;-17.4400;-10.6100
1289.8010;-26.6400;-17.3800;-9.2600
1290.0000;-25.1500;-17.3400;-7.8100
1290.1990;-24.2300;-17.2800;-6.9500
1290.3980;-23.2300;-17.2300;-6.0000
1290.5970;-22.3500;-17.2000;-5.1500
1290.7970;-21.5500;-17.1400;-4.4100
1290.9960;-20.8300;-17.1000;-3.7300
1291.1950;-20.2200;-17.0400;-3.1800
1291.3940;-19.6600;-17.0000;-2.6600
1291.5930;-19.1700;-16.9400;-2.2300
1291.7920;-18.7300;-16.9000;-1.8300
1291.9910;-18.3600;-16.8600;-1.5000
1292.1900;-18.0400;-16.8000;-1.2400
1292.3890;-17.7600;-16.7600;-1.0000
1292.5890;-17.5400;-16.7100;-0.8300
1292.7880;-17.3400;-16.6600;-0.6800
1292.9870;-17.2100;-16.6300;-0.5800
1293.1860;-17.1100;-16.5700;-0.5400
1293.3850;-17.0500;-16.5400;-0.5100
1293.5840;-17.0500;-16.4800;-0.5700
1293.7830;-17.0700;-16.4400;-0.6300
1293.9820;-17.1500;-16.4100;-0.7400
1294.1810;-17.2600;-16.3600;-0.9000
1294.3810;-17.4300;-16.3400;-1.0900
1294.5800;-17.6400;-16.2700;-1.3700
1294.7790;-17.9000;-16.2400;-1.6600
1294.9780;-18.2200;-16.2000;-2.0200
1295.1770;-18.5900;-16.1600;-2.4300
1295.3760;-19.0300;-16.1300;-2.9000
1295.5750;-19.5300;-16.0800;-3.4500
1295.7740;-20.1000;-16.0600;-4.0400
1295.9740;-20.7700;-16.0000;-4.7700
1296.1730;-21.5200;-15.9700;-5.5500
1296.3720;-22.3900;-15.9300;-6.4600
1296.5710;-23.4000;-15.8900;-7.5100
1296.7700;-24.5600;-15.8700;-8.6900
1296.9690;-25.9000;-15.8200;-10.0800
1297.1680;-27.4300;-15.8000;-11.6300
1297.3670;-29.5500;-15.7500;-13.8000
1297.5660;-30.8600;-15.7200;-15.1400
1297.7660;-31.9700;-15.6900;-16.2800
1297.9650;-31.8000;-15.6600;-16.1400
1298.1640;-30.4400;-15.6400;-14.8000
1298.3630;-28.6700;-15.6000;-13.0700
1298.5620;-26.9200;-15.5600;-11.3600
1298.7610;-25.1400;-15.5400;-9.6000
1298.9600;-24.0400;-15.5100;-8.5300
1299.1590;-22.9000;-15.5000;-7.4000
1299.3580;-21.8700;-15.4600;-6.4100
1299.5580;-20.9700;-15.4300;-5.5400
1299.7570;-20.2100;-15.4000;-4.8100
1299.9560;-19.5100;-15.3800;-4.1300
1300.1550;-18.9200;-15.3700;-3.5500
1300.3540;-18.3900;-15.3300;-3.0600
1300.5530;-17.9200;-15.3100;-2.6100
1300.7520;-17.5200;-15.2800;-2.2400
1300.9510;-17.1600;-15.2600;-1.9000
1301.1500;-16.8900;-15.2500;-1.6400
1301.3500;-16.6300;-15.2200;-1.4100
1301.5490;-16.4400;-15.2200;-1.2200
1301.7480;-16.2800;-15.1900;-1.0900
1301.9470;-16.1600;-15.1700;-0.9900
1302.1460;-16.1200;-15.1700;-0.9500
1302.3450;-16.0700;-15.1500;-0.9200
1302.5440;-16.1100;-15.1500;-0.9600
1302.7430;-16.1500;-15.1200;-1.0300
1302.9430;-16.2400;-15.1000;-1.1400
1303.1420;-16.3800;-15.1000;-1.2800
1303.3410;-16.5600;-15.0800;-1.4800
1303.5400;-16.7900;-15.0900;-1.7000
1303.7390;-17.0600;-15.0700;-1.9900
1303.9380;-17.3900;-15.0600;-2.3300
1304.1370;-17.7600;-15.0600;-2.7000
1304.3360;-18.2900;-15.0500;-3.2400
1304.5350;-18.7000;-15.0600;-3.6400
1304.7350;-19.2500;-15.0600;-4.1900
1304.9340;-19.8800;-15.0600;-4.8200
1305.1330;-20.5800;-15.0600;-5.5200
1305.3320;-21.3700;-15.0600;-6.3100
1305.5310;-22.2200;-15.0800;-7.1400
1305.7300;-23.1500;-15.0800;-8.0700
1305.9290;-24.1300;-15.0900;-9.0400
1306.1280;-25.1200;-15.1000;-10.0200
1306.3270;-26.0300;-15.1100;-10.9200
1306.5270;-26.6900;-15.1400;-11.5500
1306.7260;-26.9500;-15.1400;-11.8100
1306.9250;-26.7200;-15.1700;-11.5500
1307.1240;-26.0800;-15.1700;-10.9100
1307.3230;-25.2100;-15.1900;-10.0200
1307.5220;-24.2300;-15.2100;-9.0200
1307.7210;-23.2600;-15.2300;-8.0300
1307.9200;-22.3300;-15.2600;-7.0700
1308.1200;-21.4900;-15.2700;-6.2200
1308.3190;-20.7300;-15.2900;-5.4400
1308.5180;-20.0500;-15.3200;-4.7300
1308.7170;-19.4400;-15.3400;-4.1000
1308.9160;-18.8800;-15.3700;-3.5100
1309.1150;-18.4100;-15.3800;-3.0300
1309.3140;-18.0000;-15.4100;-2.5900
1309.5130;-17.6400;-15.4300;-2.2100
1309.7120;-17.3500;-15.4500;-1.9000
1309.9120;-17.0800;-15.4800;-1.6000
