Wavelength;Intensity_Meas;Intensity_Ref;Difference_dB
1200.0000;-60.4800;-55.6000;-4.8800
1200.1990;-60.3800;-55.5600;-4.8200
1200.3980;-60.3400;-55.5400;-4.8000
1200.5970;-60.3300;-55.5000;-4.8300
1200.7970;-60.3200;-55.4800;-4.8400
1200.9960;-60.2400;-55.4400;-4.8000
1201.1950;-60.1600;-55.3900;-4.7700
1201.3940;-60.1600;-55.3500;-4.8100
1201.5930;-60.1800;-55.3200;-4.8600
1201.7920;-60.1000;-55.2800;-4.8200
1201.9910;-60.0500;-55.2100;-4.8400
1202.1900;-60.0500;-55.1600;-4.8900
1202.3890;-60.0500;-55.1100;-4.9400
1202.5890;-60.0000;-55.0800;-4.9200
1202.7880;-59.9400;-55.0100;-4.9300
1202.9870;-59.9200;-54.9400;-4.9800
1203.1860;-59.9200;-54.8900;-5.0300
1203.3850;-59.8800;-54.8700;-5.0100
1203.5840;-59.8200;-54.8100;-5.0100
1203.7830;-59.8100;-54.7500;-5.0600
1203.9820;-59.8200;-54.7200;-5.1000
1204.1810;-59.8200;-54.6800;-5.1400
1204.3810;-59.7700;-54.6400;-5.1300
1204.5800;-59.7400;-54.6000;-5.1400
1204.7790;-59.8200;-54.5800;-5.2400
1204.9780;-59.8300;-54.5500;-5.2800
1205.1770;-59.7800;-54.5100;-5.2700
1205.3760;-59.7700;-54.4800;-5.2900
1205.5750;-59.8100;-54.4600;-5.3500
1205.7740;-59.8500;-54.4400;-5.4100
1205.9740;-59.8400;-54.4400;-5.4000
1206.1730;-59.8000;-54.4100;-5.3900
1206.3720;-59.8000;-54.3800;-5.4200
1206.5710;-59.8400;-54.3500;-5.4900
1206.7700;-59.8200;-54.3400;-5.4800
1206.9690;-59.7200;-54.3100;-5.4100
1207.1680;-59.6700;-54.2700;-5.4000
1207.3670;-59.7000;-54.2400;-5.4600
1207.5660;-59.6800;-54.2200;-5.4600
1207.7660;-59.5300;-54.1900;-5.3400
1207.9650;-59.4600;-54.1500;-5.3100
1208.1640;-59.4200;-54.0900;-5.3300
1208.3630;-59.4100;-54.0700;-5.3400
1208.5620;-59.2900;-54.0300;-5.2600
1208.7610;-59.1900;-53.9700;-5.2200
1208.9600;-59.1300;-53.9200;-5.2100
1209.1590;-59.1100;-53.8600;-5.2500
1209.3580;-59.0400;-53.8200;-5.2200
1209.5580;-58.9000;-53.7600;-5.1400
1209.7570;-58.8600;-53.7100;-5.1500
1209.9560;-58.8500;-53.6500;-5.2000
1210.1550;-58.7600;-53.6100;-5.1500
1210.3540;-58.6700;-53.5700;-5.1000
1210.5530;-58.6100;-53.4900;-5.1200
1210.7520;-58.6100;-53.4400;-5.1700
1210.9510;-58.5600;-53.4100;-5.1500
1211.1500;-58.4600;-53.3500;-5.1100
1211.3500;-58.4100;-53.3100;-5.1000
1211.5490;-58.4200;-53.2600;-5.1600
1211.7480;-58.4100;-53.2300;-5.1800
1211.9470;-58.3200;-53.2100;-5.1100
1212.1460;-58.2800;-53.1600;-5.1200
1212.3450;-58.3400;-53.1200;-5.2200
1212.5440;-58.3600;-53.1000;-5.2600
1212.7430;-58.3000;-53.0700;-5.2300
1212.9430;-58.2800;-53.0300;-5.2500
1213.1420;-58.3100;-52.9900;-5.3200
1213.3410;-58.3600;-52.9800;-5.3800
1213.5400;-58.3300;-52.9500;-5.3800
1213.7390;-58.3000;-52.9000;-5.4000
1213.9380;-58.3100;-52.8700;-5.4400
1214.1370;-58.3400;-52.8300;-5.5100
1214.3360;-58.3100;-52.8000;-5.5100
1214.5350;-58.2300;-52.7600;-5.4700
1214.7350;-58.2200;-52.7100;-5.5100
1214.9340;-58.2300;-52.6600;-5.5700
1215.1330;-58.1600;-52.6200;-5.5400
1215.3320;-58.0500;-52.5800;-5.4700
1215.5310;-58.0100;-52.5100;-5.5000
1215.7300;-57.9900;-52.4500;-5.5400
1215.9290;-57.8900;-52.4200;-5.4700
1216.1280;-57.7600;-52.3500;-5.4100
1216.3270;-57.6900;-52.2900;-5.4000
1216.5270;-57.6300;-52.2300;-5.4000
1216.7260;-57.5400;-52.1700;-5.3700
1216.9250;-57.3900;-52.1200;-5.2700
1217.1240;-57.2600;-52.0500;-5.2100
1217.3230;-57.2000;-52.0000;-5.2000
1217.5220;-57.1100;-51.9400;-5.1700
1217.7210;-56.9600;-51.8900;-5.0700
1217.9200;-56.8200;-51.8400;-4.9800
1218.1200;-56.7500;-51.7700;-4.9800
1218.3190;-56.6800;-51.7400;-4.9400
1218.5180;-56.5400;-51.6900;-4.8500
1218.7170;-56.4500;-51.6500;-4.8000
1218.9160;-56.3900;-51.6100;-4.7800
1219.1150;-56.3400;-51.5600;-4.7800
1219.3140;-56.2500;-51.5400;-4.7100
1219.5130;-56.1800;-51.5000;-4.6800
1219.7120;-56.1800;-51.4500;-4.7300
1219.9120;-56.1700;-51.4200;-4.7500
1220.1110;-56.1300;-51.3900;-4.7400
1220.3100;-56.1100;-51.3500;-4.7600
1220.5090;-56.1300;-51.3000;-4.8300
1220.7080;-56.1700;-51.2600;-4.9100
1220.9070;-56.1700;-51.2200;-4.9500
1221.1060;-56.1600;-51.1600;-5.0000
1221.3050;-56.2200;-51.1200;-5.1000
1221.5040;-56.2700;-51.0400;-5.2300
1221.7040;-56.3000;-50.9900;-5.3100
1221.9030;-56.3000;-50.9400;-5.3600
1222.1020;-56.3500;-50.8600;-5.4900
1222.3010;-56.4200;-50.8100;-5.6100
1222.5000;-56.4200;-50.7300;-5.6900
1222.6990;-56.4300;-50.6700;-5.7600
1222.8980;-56.4500;-50.5900;-5.8600
1223.0970;-56.4900;-50.5100;-5.9800
1223.2970;-56.4900;-50.4600;-6.0300
1223.4960;-56.4400;-50.3700;-6.0700
1223.6950;-56.4400;-50.3000;-6.1400
1223.8940;-56.4400;-50.2400;-6.2000
1224.0930;-56.3900;-50.1600;-6.2300
1224.2920;-56.3200;-50.1100;-6.2100
1224.4910;-56.2500;-50.0200;-6.2300
1224.6900;-56.2000;-49.9600;-6.2400
1224.8890;-56.0900;-49.9000;-6.1900
1225.0890;-55.9600;-49.8400;-6.1200
1225.2880;-55.8500;-49.7800;-6.0700
1225.4870;-55.6900;-49.7100;-5.9800
1225.6860;-55.5700;-49.6600;-5.9100
1225.8850;-55.3800;-49.6200;-5.7600
1226.0840;-55.2200;-49.5500;-5.6700
1226.2830;-55.0900;-49.5100;-5.5800
1226.4820;-54.8900;-49.4400;-5.4500
1226.6810;-54.7200;-49.4000;-5.3200
1226.8810;-54.5600;-49.3500;-5.2100
1227.0800;-54.4200;-49.2800;-5.1400
1227.2790;-54.2600;-49.2400;-5.0200
1227.4780;-54.0800;-49.1700;-4.9100
1227.6770;-53.9800;-49.1100;-4.8700
1227.8760;-53.8800;-49.0500;-4.8300
1228.0750;-53.7600;-48.9800;-4.7800
1228.2740;-53.6400;-48.9200;-4.7200
1228.4740;-53.5500;-48.8400;-4.7100
1228.6730;-53.5200;-48.7700;-4.7500
1228.8720;-53.4300;-48.7000;-4.7300
1229.0710;-53.3500;-48.6200;-4.7300
1229.2700;-53.3300;-48.5500;-4.7800
1229.4690;-53.3000;-48.4500;-4.8500
1229.6680;-53.2800;-48.3800;-4.9000
1229.8670;-53.2200;-48.3000;-4.9200
1230.0660;-53.2300;-48.2100;-5.0200
1230.2660;-53.2500;-48.1300;-5.1200
1230.4650;-53.2200;-48.0400;-5.1800
1230.6640;-53.2300;-47.9600;-5.2700
1230.8630;-53.2700;-47.8900;-5.3800
1231.0620;-53.3100;-47.8100;-5.5000
1231.2610;-53.3400;-47.7600;-5.5800
1231.4600;-53.3700;-47.6800;-5.6900
1231.6590;-53.4300;-47.6200;-5.8100
1231.8580;-53.4600;-47.5500;-5.9100
1232.0580;-53.4700;-47.5000;-5.9700
1232.2570;-53.4900;-47.4400;-6.0500
1232.4560;-53.5200;-47.3700;-6.1500
1232.6550;-53.5300;-47.3200;-6.2100
1232.8540;-53.4700;-47.2500;-6.2200
1233.0530;-53.4500;-47.2000;-6.2500
1233.2520;-53.4100;-47.1500;-6.2600
1233.4510;-53.3300;-47.0700;-6.2600
1233.6500;-53.2300;-47.0300;-6.2000
1233.8500;-53.1200;-46.9500;-6.1700
1234.0490;-53.0200;-46.8900;-6.1300
1234.2480;-52.8800;-46.8300;-6.0500
1234.4470;-52.7000;-46.7500;-5.9500
1234.6460;-52.5800;-46.6900;-5.8900
1234.8450;-52.4400;-46.6100;-5.8300
1235.0440;-52.2700;-46.5300;-5.7400
1235.2430;-52.1100;-46.4600;-5.6500
1235.4430;-51.9700;-46.3600;-5.6100
1235.6420;-51.8500;-46.2900;-5.5600
1235.8410;-51.6800;-46.1900;-5.4900
1236.0400;-51.5500;-46.1100;-5.4400
1236.2390;-51.4300;-46.0200;-5.4100
1236.4380;-51.3100;-45.9100;-5.4000
1236.6370;-51.2000;-45.8300;-5.3700
1236.8360;-51.0900;-45.7400;-5.3500
1237.0350;-51.0200;-45.6700;-5.3500
1237.2350;-50.9300;-45.5700;-5.3600
1237.4340;-50.8300;-45.4700;-5.3600
1237.6330;-50.7900;-45.3900;-5.4000
1237.8320;-50.7400;-45.3100;-5.4300
1238.0310;-50.6900;-45.2400;-5.4500
1238.2300;-50.6400;-45.1500;-5.4900
1238.4290;-50.6100;-45.0700;-5.5400
1238.6280;-50.6100;-45.0000;-5.6100
1238.8270;-50.5600;-44.9100;-5.6500
1239.0270;-50.5400;-44.8500;-5.6900
1239.2260;-50.5200;-44.7500;-5.7700
1239.4250;-50.4900;-44.6700;-5.8200
1239.6240;-50.4600;-44.6000;-5.8600
1239.8230;-50.4000;-44.5100;-5.8900
1240.0220;-50.3600;-44.4400;-5.9200
1240.2210;-50.2700;-44.3400;-5.9300
1240.4200;-50.1500;-44.2500;-5.9000
1240.6200;-50.0600;-44.1600;-5.9000
1240.8190;-49.9400;-44.0600;-5.8800
1241.0180;-49.7800;-43.9600;-5.8200
1241.2170;-49.5900;-43.8500;-5.7400
1241.4160;-49.4200;-43.7400;-5.6800
1241.6150;-49.2500;-43.6200;-5.6300
1241.8140;-49.0400;-43.5000;-5.5400
1242.0130;-48.8600;-43.4000;-5.4600
1242.2120;-48.6800;-43.2700;-5.4100
1242.4120;-48.5000;-43.1500;-5.3500
1242.6110;-48.3200;-43.0300;-5.2900
1242.8100;-48.1500;-42.9000;-5.2500
1243.0090;-48.0200;-42.7800;-5.2400
1243.2080;-47.8800;-42.6500;-5.2300
1243.4070;-47.7600;-42.5300;-5.2300
1243.6060;-47.6800;-42.4000;-5.2800
1243.8050;-47.6100;-42.2800;-5.3300
1244.0040;-47.5500;-42.1600;-5.3900
1244.2040;-47.5000;-42.0300;-5.4700
1244.4030;-47.5000;-41.9100;-5.5900
1244.6020;-47.5100;-41.7900;-5.7200
1244.8010;-47.5300;-41.6700;-5.8600
1245.0000;-47.5900;-41.5700;-6.0200
1245.1990;-47.6500;-41.4400;-6.2100
1245.3980;-47.7300;-41.3300;-6.4000
1245.5970;-47.8200;-41.2000;-6.6200
1245.7970;-47.9200;-41.0800;-6.8400
1245.9960;-48.0500;-40.9700;-7.0800
1246.1950;-48.1500;-40.8400;-7.3100
1246.3940;-48.2500;-40.7200;-7.5300
1246.5930;-48.3500;-40.5800;-7.7700
1246.7920;-48.4000;-40.4600;-7.9400
1246.9910;-48.4200;-40.3300;-8.0900
1247.1900;-48.3900;-40.1900;-8.2000
1247.3890;-48.3100;-40.0500;-8.2600
1247.5890;-48.1400;-39.9100;-8.2300
1247.7880;-47.9000;-39.7700;-8.1300
1247.9870;-47.6100;-39.6400;-7.9700
1248.1860;-47.2500;-39.4900;-7.7600
1248.3850;-46.8400;-39.3500;-7.4900
1248.5840;-46.3900;-39.2000;-7.1900
1248.7830;-45.9200;-39.0500;-6.8700
1248.9820;-45.3600;-38.9300;-6.4300
1249.1810;-44.9500;-38.7700;-6.1800
1249.3810;-44.5000;-38.6400;-5.8600
1249.5800;-44.0200;-38.5000;-5.5200
1249.7790;-43.5700;-38.3600;-5.2100
1249.9780;-43.1400;-38.2200;-4.9200
1250.1770;-42.7400;-38.0800;-4.6600
1250.3760;-42.3700;-37.9500;-4.4200
1250.5750;-42.0000;-37.8100;-4.1900
1250.7740;-41.6700;-37.6800;-3.9900
1250.9740;-41.3800;-37.5700;-3.8100
1251.1730;-41.1000;-37.4300;-3.6700
1251.3720;-40.8700;-37.3000;-3.5700
1251.5710;-40.6500;-37.1800;-3.4700
1251.7700;-40.4600;-37.0400;-3.4200
1251.9690;-40.3000;-36.9200;-3.3800
1252.1680;-40.1600;-36.7700;-3.3900
1252.3670;-40.0700;-36.6500;-3.4200
1252.5660;-39.9800;-36.5200;-3.4600
1252.7660;-39.9400;-36.3800;-3.5600
1252.9650;-39.9300;-36.2600;-3.6700
1253.1640;-39.9300;-36.1100;-3.8200
1253.3630;-39.9800;-35.9700;-4.0100
1253.5620;-40.0500;-35.8000;-4.2500
1253.7610;-40.1400;-35.6900;-4.4500
1253.9600;-40.2600;-35.5400;-4.7200
1254.1590;-40.4000;-35.4000;-5.0000
1254.3580;-40.5600;-35.2500;-5.3100
1254.5580;-40.7200;-35.1100;-5.6100
1254.7570;-40.8800;-34.9700;-5.9100
1254.9560;-41.0300;-34.8100;-6.2200
1255.1550;-41.1600;-34.6700;-6.4900
1255.3540;-41.2500;-34.5400;-6.7100
1255.5530;-41.2900;-34.4000;-6.8900
1255.7520;-41.2600;-34.2700;-6.9900
1255.9510;-41.1400;-34.1200;-7.0200
1256.1500;-40.9500;-34.0000;-6.9500
1256.3500;-40.6900;-33.8600;-6.8300
1256.5490;-40.3300;-33.7300;-6.6000
1256.7480;-39.9400;-33.6200;-6.3200
1256.9470;-39.4800;-33.4700;-6.0100
1257.1460;-38.9900;-33.3500;-5.6400
1257.3450;-38.4900;-33.2300;-5.2600
1257.5440;-37.9900;-33.1000;-4.8900
1257.7430;-37.4900;-32.9900;-4.5000
1257.9430;-36.9800;-32.8400;-4.1400
1258.1420;-36.5100;-32.7300;-3.7800
1258.3410;-36.0600;-32.5900;-3.4700
1258.5400;-35.5500;-32.4700;-3.0800
1258.7390;-35.2100;-32.3500;-2.8600
1258.9380;-34.8300;-32.2000;-2.6300
1259.1370;-34.4900;-32.0800;-2.4100
1259.3360;-34.1600;-31.9300;-2.2300
1259.5350;-33.8600;-31.8000;-2.0600
1259.7350;-33.6100;-31.6700;-1.9400
1259.9340;-33.3700;-31.5200;-1.8500
1260.1330;-33.1800;-31.4000;-1.7800
1260.3320;-33.0000;-31.2600;-1.7400
1260.5310;-32.8800;-31.1300;-1.7500
1260.7300;-32.7800;-31.0000;-1.7800
1260.9290;-32.7100;-30.8600;-1.8500
1261.1280;-32.6900;-30.7300;-1.9600
1261.3270;-32.6800;-30.5900;-2.0900
1261.5270;-32.7400;-30.4700;-2.2700
1261.7260;-32.8200;-30.3500;-2.4700
1261.9250;-32.9400;-30.2100;-2.7300
1262.1240;-33.1100;-30.0900;-3.0200
1262.3230;-33.3000;-29.9600;-3.3400
1262.5220;-33.5600;-29.8500;-3.7100
1262.7210;-33.8600;-29.7300;-4.1300
1262.9200;-34.1900;-29.6000;-4.5900
1263.1200;-34.5900;-29.4800;-5.1100
1263.3190;-35.0200;-29.3500;-5.6700
1263.5180;-35.5200;-29.2300;-6.2900
1263.7170;-36.0500;-29.1200;-6.9300
1263.9160;-36.6100;-28.9900;-7.6200
1264.1150;-37.2000;-28.8700;-8.3300
1264.3140;-37.7700;-28.7400;-9.0300
1264.5130;-38.4100;-28.6200;-9.7900
1264.7120;-38.7000;-28.5000;-10.2000
1264.9120;-38.8900;-28.3600;-10.5300
1265.1110;-38.8400;-28.2400;-10.6000
1265.3100;-38.5200;-28.1000;-10.4200
1265.5090;-38.0000;-27.9900;-10.0100
1265.7080;-37.2900;-27.8600;-9.4300
1265.9070;-36.5200;-27.7300;-8.7900
1266.1060;-35.5700;-27.6100;-7.9600
1266.3050;-34.9100;-27.4800;-7.4300
1266.5040;-34.1600;-27.3700;-6.7900
1266.7040;-33.4400;-27.2500;-6.1900
1266.9030;-32.7900;-27.1200;-5.6700
1267.1020;-32.1600;-27.0200;-5.1400
1267.3010;-31.6000;-26.8900;-4.7100
1267.5000;-31.1000;-26.7900;-4.3100
1267.6990;-30.6300;-26.6800;-3.9500
1267.8980;-30.2200;-26.5600;-3.6600
1268.0970;-29.8500;-26.4700;-3.3800
1268.2970;-29.5200;-26.3400;-3.1800
1268.4960;-29.2300;-26.2500;-2.9800
1268.6950;-28.9800;-26.1300;-2.8500
1268.8940;-28.7700;-26.0100;-2.7600
1269.0930;-28.5900;-25.9100;-2.6800
1269.2920;-28.4500;-25.8000;-2.6500
1269.4910;-28.3600;-25.7100;-2.6500
1269.6900;-28.2900;-25.5900;-2.7000
1269.8890;-28.2800;-25.4900;-2.7900
1270.0890;-28.2800;-25.3700;-2.9100
1270.2880;-28.3400;-25.2600;-3.0800
1270.4870;-28.4400;-25.1700;-3.2700
1270.6860;-28.5700;-25.0500;-3.5200
1270.8850;-28.7600;-24.9400;-3.8200
1271.0840;-28.9700;-24.8200;-4.1500
1271.2830;-29.2400;-24.7200;-4.5200
1271.4820;-29.5300;-24.6200;-4.9100
1271.6810;-29.8800;-24.5000;-5.3800
1271.8810;-30.2700;-24.4100;-5.8600
1272.0800;-30.6700;-24.2900;-6.3800
1272.2790;-31.1200;-24.1900;-6.9300
1272.4780;-31.5600;-24.0900;-7.4700
1272.6770;-32.0000;-23.9900;-8.0100
1272.8760;-32.4100;-23.9000;-8.5100
1273.0750;-32.7400;-23.7900;-8.9500
1273.2740;-32.9700;-23.7000;-9.2700
1273.4740;-33.0500;-23.6100;-9.4400
1273.6730;-32.9700;-23.5100;-9.4600
1273.8720;-32.7500;-23.4200;-9.3300
1274.0710;-32.3700;-23.3200;-9.0500
1274.2700;-31.9000;-23.2300;-8.6700
1274.4690;-31.3400;-23.1500;-8.1900
1274.6680;-30.7400;-23.0500;-7.6900
1274.8670;-30.1400;-22.9700;-7.1700
1275.0660;-29.5300;-22.8700;-6.6600
1275.2660;-28.9700;-22.7700;-6.2000
1275.4650;-28.4200;-22.6800;-5.7400
1275.6640;-27.9100;-22.5800;-5.3300
1275.8630;-27.4400;-22.5000;-4.9400
1276.0620;-27.0100;-22.3900;-4.6200
1276.2610;-26.6400;-22.3000;-4.3400
1276.4600;-26.2800;-22.2100;-4.0700
1276.6590;-25.9300;-22.1000;-3.8300
1276.8580;-25.7000;-22.0200;-3.6800
1277.0580;-25.4900;-21.9200;-3.5700
1277.2570;-25.3100;-21.8300;-3.4800
1277.4560;-25.1700;-21.7400;-3.4300
1277.6550;-25.0700;-21.6500;-3.4200
1277.8540;-25.0000;-21.5700;-3.4300
1278.0530;-24.9700;-21.4700;-3.5000
1278.2520;-24.9800;-21.3900;-3.5900
1278.4510;-25.0200;-21.3000;-3.7200
1278.6500;-25.1100;-21.2200;-3.8900
1278.8500;-25.2200;-21.1400;-4.0800
1279.0490;-25.3700;-21.0500;-4.3200
1279.2480;-25.5500;-20.9800;-4.5700
1279.4470;-25.7600;-20.8900;-4.8700
1279.6460;-26.0100;-20.8100;-5.2000
1279.8450;-26.2700;-20.7400;-5.5300
1280.0440;-26.5600;-20.6500;-5.9100
1280.2430;-26.8300;-20.5900;-6.2400
1280.4430;-27.1100;-20.5000;-6.6100
1280.6420;-27.3600;-20.4300;-6.9300
1280.8410;-27.5400;-20.3500;-7.1900
1281.0400;-27.6700;-20.2700;-7.4000
1281.2390;-27.6800;-20.2000;-7.4800
1281.4380;-27.5700;-20.1200;-7.4500
1281.6370;-27.3600;-20.0500;-7.3100
1281.8360;-27.0200;-19.9700;-7.0500
1282.0350;-26.6100;-19.8900;-6.7200
1282.2350;-26.1000;-19.8300;-6.2700
1282.4340;-25.5600;-19.7400;-5.8200
1282.6330;-25.0100;-19.6800;-5.3300
1282.8320;-24.4200;-19.6100;-4.8100
1283.0310;-23.8700;-19.5300;-4.3400
1283.2300;-23.3000;-19.4700;-3.8300
1283.4290;-22.7800;-19.4000;-3.3800
1283.6280;-22.2800;-19.3300;-2.9500
1283.8270;-21.8100;-19.2600;-2.5500
1284.0270;-21.3900;-19.1900;-2.2000
1284.2260;-20.9700;-19.1300;-1.8400
1284.4250;-20.6100;-19.0600;-1.5500
1284.6240;-20.2700;-19.0000;-1.2700
1284.8230;-19.9700;-18.9300;-1.0400
1285.0220;-19.7200;-18.8600;-0.8600
1285.2210;-19.4800;-18.8000;-0.6800
1285.4200;-19.2900;-18.7300;-0.5600
1285.6200;-19.1200;-18.6700;-0.4500
1285.8190;-19.0000;-18.5900;-0.4100
1286.0180;-18.9200;-18.5300;-0.3900
1286.2170;-18.8500;-18.4700;-0.3800
1286.4160;-18.8500;-18.3900;-0.4600
1286.6150;-18.8700;-18.3400;-0.5300
1286.8140;-18.9300;-18.2700;-0.6600
1287.0130;-19.0400;-18.2000;-0.8400
1287.2120;-19.1800;-18.1400;-1.0400
1287.4120;-19.3900;-18.0700;-1.3200
1287.6110;-19.6200;-18.0200;-1.6000
1287.8100;-19.9100;-17.9400;-1.9700
1288.0090;-20.2600;-17.8900;-2.3700
1288.2080;-20.6600;-17.8200;-2.8400
1288.4070;-21.1500;-17.7600;-3.3900
1288.6060;-21.6800;-17.7100;-3.9700
1288.8050;-22.3100;-17.6500;-4.6600
1289.0040;-23.0300;-17.6000;-5.4300
1289.2040;-23.8400;-17.5300;-6.3100
1289.4030;-24.7800;-17.4800;-7.3000
1289.6020;-25.8100;-17.4400;-8.3700
1289.8010;-26.9700;-17.3800;-9.5900
1290.0000;-28.4800;-17.3400;-11.1400
1290.1990;-29.4600;-17.2800;-12.1800
1290.3980;-30.4200;-17.2300;-13.1900
1290.5970;-30.8000;-17.2000;-13.6000
1290.7970;-30.3700;-17.1400;-13.2300
1290.9960;-29.2700;-17.1000;-12.1700
1291.1950;-27.9300;-17.0400;-10.8900
1291.3940;-26.5700;-17.0000;-9.5700
1291.5930;-25.0800;-16.9400;-8.1400
1291.7920;-24.1200;-16.9000;-7.2200
1291.9910;-23.0900;-16.8600;-6.2300
1292.1900;-22.1800;-16.8000;-5.3800
1292.3890;-21.3500;-16.7600;-4.5900
1292.5890;-20.6300;-16.7100;-3.9200
1292.7880;-19.9700;-16.6600;-3.3100
1292.9870;-19.3900;-16.6300;-2.7600
1293.1860;-18.9000;-16.5700;-2.3300
1293.3850;-18.4400;-16.5400;-1.9000
1293.5840;-18.0600;-16.4800;-1.5800
1293.7830;-17.7100;-16.4400;-1.2700
1293.9820;-17.4300;-16.4100;-1.0200
1294.1810;-17.2000;-16.3600;-0.8400
1294.3810;-17.0000;-16.3400;-0.6600
1294.5800;-16.8500;-16.2700;-0.5800
1294.7790;-16.7400;-16.2400;-0.5000
1294.9780;-16.6700;-16.2000;-0.4700
1295.1770;-16.6500;-16.1600;-0.4900
1295.3760;-16.6700;-16.1300;-0.5400
1295.5750;-16.7300;-16.0800;-0.6500
1295.7740;-16.8200;-16.0600;-0.7600
1295.9740;-16.9700;-16.0000;-0.9700
1296.1730;-17.1600;-15.9700;-1.1900
1296.3720;-17.3900;-15.9300;-1.4600
1296.5710;-17.6900;-15.8900;-1.8000
1296.7700;-18.0200;-15.8700;-2.1500
1296.9690;-18.4300;-15.8200;-2.6100
1297.1680;-18.8900;-15.8000;-3.0900
1297.3670;-19.4200;-15.7500;-3.6700
1297.5660;-20.0300;-15.7200;-4.3100
1297.7660;-20.7200;-15.6900;-5.0300
1297.9650;-21.5300;-15.6600;-5.8700
1298.1640;-22.4400;-15.6400;-6.8000
1298.3630;-23.5000;-15.6000;-7.9000
1298.5620;-24.7000;-15.5600;-9.1400
1298.7610;-26.0800;-15.5400;-10.5400
1298.9600;-27.6500;-15.5100;-12.1400
1299.1590;-29.6300;-15.5000;-14.1300
1299.3580;-30.7200;-15.4600;-15.2600
1299.5580;-31.2300;-15.4300;-15.8000
1299.7570;-30.5700;-15.4000;-15.1700
1299.9560;-29.0900;-15.3800;-13.7100
1300.1550;-27.4200;-15.3700;-12.0500
1300.3540;-25.6100;-15.3300;-10.2800
1300.5530;-24.4300;-15.3100;-9.1200
1300.7520;-23.2200;-15.2800;-7.9400
1300.9510;-22.1400;-15.2600;-6.8800
1301.1500;-21.2200;-15.2500;-5.9700
1301.3500;-20.3800;-15.2200;-5.1600
1301.5490;-19.6600;-15.2200;-4.4400
1301.7480;-19.0300;-15.1900;-3.8400
1301.9470;-18.4600;-15.1700;-3.2900
1302.1460;-17.9900;-15.1700;-2.8200
1302.3450;-17.5400;-15.1500;-2.3900
1302.5440;-17.1800;-15.1500;-2.0300
1302.7430;-16.8700;-15.1200;-1.7500
1302.9430;-16.5900;-15.1000;-1.4900
1303.1420;-16.4000;-15.1000;-1.3000
1303.3410;-16.2100;-15.0800;-1.1300
1303.5400;-16.0800;-15.0900;-0.9900
1303.7390;-16.0000;-15.0700;-0.9300
1303.9380;-15.9500;-15.0600;-0.8900
1304.1370;-15.9600;-15.0600;-0.9000
1304.3360;-15.9900;-15.0500;-0.9400
1304.5350;-16.0900;-15.0600;-1.0300
1304.7350;-16.2000;-15.0600;-1.1400
1304.9340;-16.3700;-15.0600;-1.3100
1305.1330;-16.5800;-15.0600;-1.5200
1305.3320;-16.8200;-15.0600;-1.7600
1305.5310;-17.1500;-15.0800;-2.0700
1305.7300;-17.4900;-15.0800;-2.4100
1305.9290;-17.9000;-15.0900;-2.8100
1306.1280;-18.4500;-15.1000;-3.3500
1306.3270;-18.8800;-15.1100;-3.7700
1306.5270;-19.4900;-15.1400;-4.3500
1306.7260;-20.1400;-15.1400;-5.0000
1306.9250;-20.8900;-15.1700;-5.7200
1307.1240;-21.7100;-15.1700;-6.5400
1307.3230;-22.6100;-15.1900;-7.4200
1307.5220;-23.5900;-15.2100;-8.3800
1307.7210;-24.6000;-15.2300;-9.3700
1307.9200;-25.6000;-15.2600;-10.3400
1308.1200;-26.4700;-15.2700;-11.2000
1308.3190;-27.0300;-15.2900;-11.7400
1308.5180;-27.1500;-15.3200;-11.8300
1308.7170;-26.7800;-15.3400;-11.4400
1308.9160;-26.0600;-15.3700;-10.6900
1309.1150;-25.1500;-15.3800;-9.7700
1309.3140;-24.1900;-15.4100;-8.7800
1309.5130;-23.2400;-15.4300;-7.8100
1309.7120;-22.3600;-15.4500;-6.9100
1309.9120;-21.5700;-15.4800;-6.0900
