Wavelength;Intensity_Meas;Intensity_Ref;Difference_dB
1200.0000;-60.4700;-55.6000;-4.8700
1200.1990;-60.3900;-55.5600;-4.8300
1200.3980;-60.3600;-55.5400;-4.8200
1200.5970;-60.3600;-55.5000;-4.8600
1200.7970;-60.3100;-55.4800;-4.8300
1200.9960;-60.2500;-55.4400;-4.8100
1201.1950;-60.1800;-55.3900;-4.7900
1201.3940;-60.2000;-55.3500;-4.8500
1201.5930;-60.2200;-55.3200;-4.9000
1201.7920;-60.1400;-55.2800;-4.8600
1201.9910;-60.1100;-55.2100;-4.9000
1202.1900;-60.1000;-55.1600;-4.9400
1202.3890;-60.1000;-55.1100;-4.9900
1202.5890;-60.0600;-55.0800;-4.9800
1202.7880;-60.0100;-55.0100;-5.0000
1202.9870;-60.0000;-54.9400;-5.0600
1203.1860;-60.0000;-54.8900;-5.1100
1203.3850;-59.9700;-54.8700;-5.1000
1203.5840;-59.9500;-54.8100;-5.1400
1203.7830;-59.8900;-54.7500;-5.1400
1203.9820;-59.9300;-54.7200;-5.2100
1204.1810;-59.9200;-54.6800;-5.2400
1204.3810;-59.8700;-54.6400;-5.2300
1204.5800;-59.8700;-54.6000;-5.2700
1204.7790;-59.8900;-54.5800;-5.3100
1204.9780;-59.9400;-54.5500;-5.3900
1205.1770;-59.9100;-54.5100;-5.4000
1205.3760;-59.8800;-54.4800;-5.4000
1205.5750;-59.9300;-54.4600;-5.4700
1205.7740;-59.9700;-54.4400;-5.5300
1205.9740;-59.9500;-54.4400;-5.5100
1206.1730;-59.9200;-54.4100;-5.5100
1206.3720;-59.8900;-54.3800;-5.5100
1206.5710;-59.9500;-54.3500;-5.6000
1206.7700;-59.9300;-54.3400;-5.5900
1206.9690;-59.8200;-54.3100;-5.5100
1207.1680;-59.7700;-54.2700;-5.5000
1207.3670;-59.7500;-54.2400;-5.5100
1207.5660;-59.7400;-54.2200;-5.5200
1207.7660;-59.5900;-54.1900;-5.4000
1207.9650;-59.5300;-54.1500;-5.3800
1208.1640;-59.5200;-54.0900;-5.4300
1208.3630;-59.4400;-54.0700;-5.3700
1208.5620;-59.3600;-54.0300;-5.3300
1208.7610;-59.2500;-53.9700;-5.2800
1208.9600;-59.2000;-53.9200;-5.2800
1209.1590;-59.1600;-53.8600;-5.3000
1209.3580;-59.0800;-53.8200;-5.2600
1209.5580;-58.9900;-53.7600;-5.2300
1209.7570;-58.9500;-53.7100;-5.2400
1209.9560;-58.9200;-53.6500;-5.2700
1210.1550;-58.8700;-53.6100;-5.2600
1210.3540;-58.7500;-53.5700;-5.1800
1210.5530;-58.7200;-53.4900;-5.2300
1210.7520;-58.7100;-53.4400;-5.2700
1210.9510;-58.6700;-53.4100;-5.2600
1211.1500;-58.5800;-53.3500;-5.2300
1211.3500;-58.5200;-53.3100;-5.2100
1211.5490;-58.5600;-53.2600;-5.3000
1211.7480;-58.5400;-53.2300;-5.3100
1211.9470;-58.4600;-53.2100;-5.2500
1212.1460;-58.4300;-53.1600;-5.2700
1212.3450;-58.4800;-53.1200;-5.3600
1212.5440;-58.5100;-53.1000;-5.4100
1212.7430;-58.4400;-53.0700;-5.3700
1212.9430;-58.4300;-53.0300;-5.4000
1213.1420;-58.4800;-52.9900;-5.4900
1213.3410;-58.5000;-52.9800;-5.5200
1213.5400;-58.5000;-52.9500;-5.5500
1213.7390;-58.4500;-52.9000;-5.5500
1213.9380;-58.4600;-52.8700;-5.5900
1214.1370;-58.5000;-52.8300;-5.6700
1214.3360;-58.4500;-52.8000;-5.6500
1214.5350;-58.3800;-52.7600;-5.6200
1214.7350;-58.3700;-52.7100;-5.6600
1214.9340;-58.3500;-52.6600;-5.6900
1215.1330;-58.2800;-52.6200;-5.6600
1215.3320;-58.1500;-52.5800;-5.5700
1215.5310;-58.1100;-52.5100;-5.6000
1215.7300;-58.0700;-52.4500;-5.6200
1215.9290;-57.9600;-52.4200;-5.5400
1216.1280;-57.8300;-52.3500;-5.4800
1216.3270;-57.7200;-52.2900;-5.4300
1216.5270;-57.7000;-52.2300;-5.4700
1216.7260;-57.5800;-52.1700;-5.4100
1216.9250;-57.4300;-52.1200;-5.3100
1217.1240;-57.3100;-52.0500;-5.2600
1217.3230;-57.2500;-52.0000;-5.2500
1217.5220;-57.1700;-51.9400;-5.2300
1217.7210;-57.0000;-51.8900;-5.1100
1217.9200;-56.8800;-51.8400;-5.0400
1218.1200;-56.8200;-51.7700;-5.0500
1218.3190;-56.7300;-51.7400;-4.9900
1218.5180;-56.6300;-51.6900;-4.9400
1218.7170;-56.5100;-51.6500;-4.8600
1218.9160;-56.4800;-51.6100;-4.8700
1219.1150;-56.4400;-51.5600;-4.8800
1219.3140;-56.3400;-51.5400;-4.8000
1219.5130;-56.3000;-51.5000;-4.8000
1219.7120;-56.2900;-51.4500;-4.8400
1219.9120;-56.3000;-51.4200;-4.8800
1220.1110;-56.2700;-51.3900;-4.8800
1220.3100;-56.2500;-51.3500;-4.9000
1220.5090;-56.3100;-51.3000;-5.0100
1220.7080;-56.3400;-51.2600;-5.0800
1220.9070;-56.3600;-51.2200;-5.1400
1221.1060;-56.3700;-51.1600;-5.2100
1221.3050;-56.4200;-51.1200;-5.3000
1221.5040;-56.5000;-51.0400;-5.4600
1221.7040;-56.5200;-50.9900;-5.5300
1221.9030;-56.5400;-50.9400;-5.6000
1222.1020;-56.5900;-50.8600;-5.7300
1222.3010;-56.6600;-50.8100;-5.8500
1222.5000;-56.6700;-50.7300;-5.9400
1222.6990;-56.6500;-50.6700;-5.9800
1222.8980;-56.6700;-50.5900;-6.0800
1223.0970;-56.6900;-50.5100;-6.1800
1223.2970;-56.6700;-50.4600;-6.2100
1223.4960;-56.6300;-50.3700;-6.2600
1223.6950;-56.6000;-50.3000;-6.3000
1223.8940;-56.5800;-50.2400;-6.3400
1224.0930;-56.5000;-50.1600;-6.3400
1224.2920;-56.4000;-50.1100;-6.2900
1224.4910;-56.3300;-50.0200;-6.3100
1224.6900;-56.2600;-49.9600;-6.3000
1224.8890;-56.1400;-49.9000;-6.2400
1225.0890;-55.9900;-49.8400;-6.1500
1225.2880;-55.8500;-49.7800;-6.0700
1225.4870;-55.7000;-49.7100;-5.9900
1225.6860;-55.5600;-49.6600;-5.9000
1225.8850;-55.3900;-49.6200;-5.7700
1226.0840;-55.2100;-49.5500;-5.6600
1226.2830;-55.0700;-49.5100;-5.5600
1226.4820;-54.9100;-49.4400;-5.4700
1226.6810;-54.7100;-49.4000;-5.3100
1226.8810;-54.5800;-49.3500;-5.2300
1227.0800;-54.4400;-49.2800;-5.1600
1227.2790;-54.2900;-49.2400;-5.0500
1227.4780;-54.1400;-49.1700;-4.9700
1227.6770;-54.0200;-49.1100;-4.9100
1227.8760;-53.9500;-49.0500;-4.9000
1228.0750;-53.8300;-48.9800;-4.8500
1228.2740;-53.7400;-48.9200;-4.8200
1228.4740;-53.6900;-48.8400;-4.8500
1228.6730;-53.6600;-48.7700;-4.8900
1228.8720;-53.6100;-48.7000;-4.9100
1229.0710;-53.5400;-48.6200;-4.9200
1229.2700;-53.5400;-48.5500;-4.9900
1229.4690;-53.5500;-48.4500;-5.1000
1229.6680;-53.5200;-48.3800;-5.1400
1229.8670;-53.5100;-48.3000;-5.2100
1230.0660;-53.5300;-48.2100;-5.3200
1230.2660;-53.5600;-48.1300;-5.4300
1230.4650;-53.5600;-48.0400;-5.5200
1230.6640;-53.5600;-47.9600;-5.6000
1230.8630;-53.6300;-47.8900;-5.7400
1231.0620;-53.6700;-47.8100;-5.8600
1231.2610;-53.6800;-47.7600;-5.9200
1231.4600;-53.7300;-47.6800;-6.0500
1231.6590;-53.7700;-47.6200;-6.1500
1231.8580;-53.8000;-47.5500;-6.2500
1232.0580;-53.8000;-47.5000;-6.3000
1232.2570;-53.7900;-47.4400;-6.3500
1232.4560;-53.8200;-47.3700;-6.4500
1232.6550;-53.7900;-47.3200;-6.4700
1232.8540;-53.7200;-47.2500;-6.4700
1233.0530;-53.6600;-47.2000;-6.4600
1233.2520;-53.6000;-47.1500;-6.4500
1233.4510;-53.5000;-47.0700;-6.4300
1233.6500;-53.3600;-47.0300;-6.3300
1233.8500;-53.2300;-46.9500;-6.2800
1234.0490;-53.1000;-46.8900;-6.2100
1234.2480;-52.9300;-46.8300;-6.1000
1234.4470;-52.7500;-46.7500;-6.0000
1234.6460;-52.6000;-46.6900;-5.9100
1234.8450;-52.4600;-46.6100;-5.8500
1235.0440;-52.2700;-46.5300;-5.7400
1235.2430;-52.0900;-46.4600;-5.6300
1235.4430;-51.9600;-46.3600;-5.6000
1235.6420;-51.8200;-46.2900;-5.5300
1235.8410;-51.6700;-46.1900;-5.4800
1236.0400;-51.5300;-46.1100;-5.4200
1236.2390;-51.4200;-46.0200;-5.4000
1236.4380;-51.3200;-45.9100;-5.4100
1236.6370;-51.2000;-45.8300;-5.3700
1236.8360;-51.1100;-45.7400;-5.3700
1237.0350;-51.0400;-45.6700;-5.3700
1237.2350;-50.9600;-45.5700;-5.3900
1237.4340;-50.8800;-45.4700;-5.4100
1237.6330;-50.8300;-45.3900;-5.4400
1237.8320;-50.8100;-45.3100;-5.5000
1238.0310;-50.7500;-45.2400;-5.5100
1238.2300;-50.7000;-45.1500;-5.5500
1238.4290;-50.6800;-45.0700;-5.6100
1238.6280;-50.6600;-45.0000;-5.6600
1238.8270;-50.6300;-44.9100;-5.7200
1239.0270;-50.5800;-44.8500;-5.7300
1239.2260;-50.5600;-44.7500;-5.8100
1239.4250;-50.5300;-44.6700;-5.8600
1239.6240;-50.4700;-44.6000;-5.8700
1239.8230;-50.4200;-44.5100;-5.9100
1240.0220;-50.3600;-44.4400;-5.9200
1240.2210;-50.2700;-44.3400;-5.9300
1240.4200;-50.1600;-44.2500;-5.9100
1240.6200;-50.0500;-44.1600;-5.8900
1240.8190;-49.9400;-44.0600;-5.8800
1241.0180;-49.7600;-43.9600;-5.8000
1241.2170;-49.6000;-43.8500;-5.7500
1241.4160;-49.4300;-43.7400;-5.6900
1241.6150;-49.2500;-43.6200;-5.6300
1241.8140;-49.0800;-43.5000;-5.5800
1242.0130;-48.8900;-43.4000;-5.4900
1242.2120;-48.7300;-43.2700;-5.4600
1242.4120;-48.5700;-43.1500;-5.4200
1242.6110;-48.4000;-43.0300;-5.3700
1242.8100;-48.2700;-42.9000;-5.3700
1243.0090;-48.1400;-42.7800;-5.3600
1243.2080;-48.0400;-42.6500;-5.3900
1243.4070;-47.9500;-42.5300;-5.4200
1243.6060;-47.8700;-42.4000;-5.4700
1243.8050;-47.8500;-42.2800;-5.5700
1244.0040;-47.8000;-42.1600;-5.6400
1244.2040;-47.7900;-42.0300;-5.7600
1244.4030;-47.8100;-41.9100;-5.9000
1244.6020;-47.8300;-41.7900;-6.0400
1244.8010;-47.8800;-41.6700;-6.2100
1245.0000;-47.9300;-41.5700;-6.3600
1245.1990;-48.0100;-41.4400;-6.5700
1245.3980;-48.0800;-41.3300;-6.7500
1245.5970;-48.1500;-41.2000;-6.9500
1245.7970;-48.2400;-41.0800;-7.1600
1245.9960;-48.2900;-40.9700;-7.3200
1246.1950;-48.3400;-40.8400;-7.5000
1246.3940;-48.3600;-40.7200;-7.6400
1246.5930;-48.3400;-40.5800;-7.7600
1246.7920;-48.3000;-40.4600;-7.8400
1246.9910;-48.1700;-40.3300;-7.8400
1247.1900;-48.0200;-40.1900;-7.8300
1247.3890;-47.8000;-40.0500;-7.7500
1247.5890;-47.5000;-39.9100;-7.5900
1247.7880;-47.1800;-39.7700;-7.4100
1247.9870;-46.7900;-39.6400;-7.1500
1248.1860;-46.3900;-39.4900;-6.9000
1248.3850;-45.9400;-39.3500;-6.5900
1248.5840;-45.4000;-39.2000;-6.2000
1248.7830;-45.0200;-39.0500;-5.9700
1248.9820;-44.5600;-38.9300;-5.6300
1249.1810;-44.1200;-38.7700;-5.3500
1249.3810;-43.6700;-38.6400;-5.0300
1249.5800;-43.2600;-38.5000;-4.7600
1249.7790;-42.8400;-38.3600;-4.4800
1249.9780;-42.4600;-38.2200;-4.2400
1250.1770;-42.1200;-38.0800;-4.0400
1250.3760;-41.7900;-37.9500;-3.8400
1250.5750;-41.4900;-37.8100;-3.6800
1250.7740;-41.2000;-37.6800;-3.5200
1250.9740;-40.9700;-37.5700;-3.4000
1251.1730;-40.7500;-37.4300;-3.3200
1251.3720;-40.5500;-37.3000;-3.2500
1251.5710;-40.4000;-37.1800;-3.2200
1251.7700;-40.2500;-37.0400;-3.2100
1251.9690;-40.1300;-36.9200;-3.2100
1252.1680;-40.0400;-36.7700;-3.2700
1252.3670;-39.9700;-36.6500;-3.3200
1252.5660;-39.9400;-36.5200;-3.4200
1252.7660;-39.9100;-36.3800;-3.5300
1252.9650;-39.9200;-36.2600;-3.6600
1253.1640;-39.9500;-36.1100;-3.8400
1253.3630;-39.9800;-35.9700;-4.0100
1253.5620;-40.0600;-35.8000;-4.2600
1253.7610;-40.1200;-35.6900;-4.4300
1253.9600;-40.2000;-35.5400;-4.6600
1254.1590;-40.2800;-35.4000;-4.8800
1254.3580;-40.3500;-35.2500;-5.1000
1254.5580;-40.4400;-35.1100;-5.3300
1254.7570;-40.4600;-34.9700;-5.4900
1254.9560;-40.4700;-34.8100;-5.6600
1255.1550;-40.4400;-34.6700;-5.7700
1255.3540;-40.3500;-34.5400;-5.8100
1255.5530;-40.2300;-34.4000;-5.8300
1255.7520;-40.0200;-34.2700;-5.7500
1255.9510;-39.7700;-34.1200;-5.6500
1256.1500;-39.4700;-34.0000;-5.4700
1256.3500;-39.1200;-33.8600;-5.2600
1256.5490;-38.7600;-33.7300;-5.0300
1256.7480;-38.3400;-33.6200;-4.7200
1256.9470;-37.9200;-33.4700;-4.4500
1257.1460;-37.4900;-33.3500;-4.1400
1257.3450;-37.0600;-33.2300;-3.8300
1257.5440;-36.6600;-33.1000;-3.5600
1257.7430;-36.2400;-32.9900;-3.2500
1257.9430;-35.7900;-32.8400;-2.9500
1258.1420;-35.4700;-32.7300;-2.7400
1258.3410;-35.1200;-32.5900;-2.5300
1258.5400;-34.8000;-32.4700;-2.3300
1258.7390;-34.4800;-32.3500;-2.1300
1258.9380;-34.2100;-32.2000;-2.0100
1259.1370;-33.9500;-32.0800;-1.8700
1259.3360;-33.7200;-31.9300;-1.7900
1259.5350;-33.5200;-31.8000;-1.7200
1259.7350;-33.3400;-31.6700;-1.6700
1259.9340;-33.2100;-31.5200;-1.6900
1260.1330;-33.1000;-31.4000;-1.7000
1260.3320;-33.0300;-31.2600;-1.7700
1260.5310;-33.0000;-31.1300;-1.8700
1260.7300;-32.9900;-31.0000;-1.9900
1260.9290;-33.0300;-30.8600;-2.1700
1261.1280;-33.1000;-30.7300;-2.3700
1261.3270;-33.2200;-30.5900;-2.6300
1261.5270;-33.3900;-30.4700;-2.9200
1261.7260;-33.6000;-30.3500;-3.2500
1261.9250;-33.8700;-30.2100;-3.6600
1262.1240;-34.1800;-30.0900;-4.0900
1262.3230;-34.5700;-29.9600;-4.6100
1262.5220;-35.0100;-29.8500;-5.1600
1262.7210;-35.5100;-29.7300;-5.7800
1262.9200;-36.0900;-29.6000;-6.4900
1263.1200;-36.7400;-29.4800;-7.2600
1263.3190;-37.4800;-29.3500;-8.1300
1263.5180;-38.4600;-29.2300;-9.2300
1263.7170;-39.1800;-29.1200;-10.0600
1263.9160;-40.0500;-28.9900;-11.0600
1264.1150;-40.8400;-28.8700;-11.9700
1264.3140;-41.4200;-28.7400;-12.6800
1264.5130;-41.5900;-28.6200;-12.9700
1264.7120;-41.2600;-28.5000;-12.7600
1264.9120;-40.4700;-28.3600;-12.1100
1265.1110;-39.4300;-28.2400;-11.1900
1265.3100;-38.2900;-28.1000;-10.1900
1265.5090;-37.1500;-27.9900;-9.1600
1265.7080;-36.0700;-27.8600;-8.2100
1265.9070;-34.8900;-27.7300;-7.1600
1266.1060;-34.1300;-27.6100;-6.5200
1266.3050;-33.2900;-27.4800;-5.8100
1266.5040;-32.5300;-27.3700;-5.1600
1266.7040;-31.8300;-27.2500;-4.5800
1266.9030;-31.1900;-27.1200;-4.0700
1267.1020;-30.6400;-27.0200;-3.6200
1267.3010;-30.1100;-26.8900;-3.2200
1267.5000;-29.6600;-26.7900;-2.8700
1267.6990;-29.2500;-26.6800;-2.5700
1267.8980;-28.8700;-26.5600;-2.3100
1268.0970;-28.5700;-26.4700;-2.1000
1268.2970;-28.2800;-26.3400;-1.9400
1268.4960;-28.0400;-26.2500;-1.7900
1268.6950;-27.8300;-26.1300;-1.7000
1268.8940;-27.6600;-26.0100;-1.6500
1269.0930;-27.5300;-25.9100;-1.6200
1269.2920;-27.4100;-25.8000;-1.6100
1269.4910;-27.3600;-25.7100;-1.6500
1269.6900;-27.3200;-25.5900;-1.7300
1269.8890;-27.3100;-25.4900;-1.8200
1270.0890;-27.3400;-25.3700;-1.9700
1270.2880;-27.3900;-25.2600;-2.1300
1270.4870;-27.4900;-25.1700;-2.3200
1270.6860;-27.6100;-25.0500;-2.5600
1270.8850;-27.7500;-24.9400;-2.8100
1271.0840;-27.9400;-24.8200;-3.1200
1271.2830;-28.1300;-24.7200;-3.4100
1271.4820;-28.3600;-24.6200;-3.7400
1271.6810;-28.5800;-24.5000;-4.0800
1271.8810;-28.8200;-24.4100;-4.4100
1272.0800;-29.0800;-24.2900;-4.7900
1272.2790;-29.3000;-24.1900;-5.1100
1272.4780;-29.5200;-24.0900;-5.4300
1272.6770;-29.6800;-23.9900;-5.6900
1272.8760;-29.7900;-23.9000;-5.8900
1273.0750;-29.8500;-23.7900;-6.0600
1273.2740;-29.8100;-23.7000;-6.1100
1273.4740;-29.7100;-23.6100;-6.1000
1273.6730;-29.5000;-23.5100;-5.9900
1273.8720;-29.2400;-23.4200;-5.8200
1274.0710;-28.9200;-23.3200;-5.6000
1274.2700;-28.5500;-23.2300;-5.3200
1274.4690;-28.1700;-23.1500;-5.0200
1274.6680;-27.7500;-23.0500;-4.7000
1274.8670;-27.3300;-22.9700;-4.3600
1275.0660;-26.9100;-22.8700;-4.0400
1275.2660;-26.5100;-22.7700;-3.7400
1275.4650;-26.0700;-22.6800;-3.3900
1275.6640;-25.7600;-22.5800;-3.1800
1275.8630;-25.4300;-22.5000;-2.9300
1276.0620;-25.1100;-22.3900;-2.7200
1276.2610;-24.8400;-22.3000;-2.5400
1276.4600;-24.5700;-22.2100;-2.3600
1276.6590;-24.3300;-22.1000;-2.2300
1276.8580;-24.1500;-22.0200;-2.1300
1277.0580;-23.9700;-21.9200;-2.0500
1277.2570;-23.8400;-21.8300;-2.0100
1277.4560;-23.7200;-21.7400;-1.9800
1277.6550;-23.6400;-21.6500;-1.9900
1277.8540;-23.6000;-21.5700;-2.0300
1278.0530;-23.5600;-21.4700;-2.0900
1278.2520;-23.5800;-21.3900;-2.1900
1278.4510;-23.5900;-21.3000;-2.2900
1278.6500;-23.6400;-21.2200;-2.4200
1278.8500;-23.7200;-21.1400;-2.5800
1279.0490;-23.8100;-21.0500;-2.7600
1279.2480;-23.9200;-20.9800;-2.9400
1279.4470;-24.0300;-20.8900;-3.1400
1279.6460;-24.1600;-20.8100;-3.3500
1279.8450;-24.3000;-20.7400;-3.5600
1280.0440;-24.4300;-20.6500;-3.7800
1280.2430;-24.5600;-20.5900;-3.9700
1280.4430;-24.6500;-20.5000;-4.1500
1280.6420;-24.7200;-20.4300;-4.2900
1280.8410;-24.7400;-20.3500;-4.3900
1281.0400;-24.7200;-20.2700;-4.4500
1281.2390;-24.6700;-20.2000;-4.4700
1281.4380;-24.5400;-20.1200;-4.4200
1281.6370;-24.3700;-20.0500;-4.3200
1281.8360;-24.1300;-19.9700;-4.1600
1282.0350;-23.8600;-19.8900;-3.9700
1282.2350;-23.5600;-19.8300;-3.7300
1282.4340;-23.2200;-19.7400;-3.4800
1282.6330;-22.8800;-19.6800;-3.2000
1282.8320;-22.5100;-19.6100;-2.9000
1283.0310;-22.1400;-19.5300;-2.6100
1283.2300;-21.7900;-19.4700;-2.3200
1283.4290;-21.4400;-19.4000;-2.0400
1283.6280;-21.1200;-19.3300;-1.7900
1283.8270;-20.7900;-19.2600;-1.5300
1284.0270;-20.5000;-19.1900;-1.3100
1284.2260;-20.2300;-19.1300;-1.1000
1284.4250;-19.9800;-19.0600;-0.9200
1284.6240;-19.7700;-19.0000;-0.7700
1284.8230;-19.5700;-18.9300;-0.6400
1285.0220;-19.4000;-18.8600;-0.5400
1285.2210;-19.2700;-18.8000;-0.4700
1285.4200;-19.1600;-18.7300;-0.4300
1285.6200;-19.1000;-18.6700;-0.4300
1285.8190;-19.0400;-18.5900;-0.4500
1286.0180;-19.0300;-18.5300;-0.5000
1286.2170;-19.0500;-18.4700;-0.5800
1286.4160;-19.1100;-18.3900;-0.7200
1286.6150;-19.2300;-18.3400;-0.8900
1286.8140;-19.3500;-18.2700;-1.0800
1287.0130;-19.5300;-18.2000;-1.3300
1287.2120;-19.7400;-18.1400;-1.6000
1287.4120;-19.9900;-18.0700;-1.9200
1287.6110;-20.3100;-18.0200;-2.2900
1287.8100;-20.6400;-17.9400;-2.7000
1288.0090;-21.0500;-17.8900;-3.1600
1288.2080;-21.4900;-17.8200;-3.6700
1288.4070;-21.9900;-17.7600;-4.2300
1288.6060;-22.5500;-17.7100;-4.8400
1288.8050;-23.1400;-17.6500;-5.4900
1289.0040;-23.7900;-17.6000;-6.1900
1289.2040;-24.4300;-17.5300;-6.9000
1289.4030;-25.0700;-17.4800;-7.5900
1289.6020;-25.6500;-17.4400;-8.2100
1289.8010;-26.0900;-17.3800;-8.7100
1290.0000;-26.3400;-17.3400;-9.0000
1290.1990;-26.3200;-17.2800;-9.0400
1290.3980;-26.0500;-17.2300;-8.8200
1290.5970;-25.5600;-17.2000;-8.3600
1290.7970;-24.9000;-17.1400;-7.7600
1290.9960;-24.1600;-17.1000;-7.0600
1291.1950;-23.3800;-17.0400;-6.3400
1291.3940;-22.6300;-17.0000;-5.6300
1291.5930;-21.8900;-16.9400;-4.9500
1291.7920;-21.2000;-16.9000;-4.3000
1291.9910;-20.5800;-16.8600;-3.7200
1292.1900;-19.9900;-16.8000;-3.1900
1292.3890;-19.4700;-16.7600;-2.7100
1292.5890;-18.9700;-16.7100;-2.2600
1292.7880;-18.5400;-16.6600;-1.8800
1292.9870;-18.1700;-16.6300;-1.5400
1293.1860;-17.8300;-16.5700;-1.2600
1293.3850;-17.5500;-16.5400;-1.0100
1293.5840;-17.2800;-16.4800;-0.8000
1293.7830;-17.0800;-16.4400;-0.6400
1293.9820;-16.9100;-16.4100;-0.5000
1294.1810;-16.7800;-16.3600;-0.4200
1294.3810;-16.7200;-16.3400;-0.3800
1294.5800;-16.6500;-16.2700;-0.3800
1294.7790;-16.6500;-16.2400;-0.4100
1294.9780;-16.6700;-16.2000;-0.4700
1295.1770;-16.7400;-16.1600;-0.5800
1295.3760;-16.8600;-16.1300;-0.7300
1295.5750;-17.0000;-16.0800;-0.9200
1295.7740;-17.2100;-16.0600;-1.1500
1295.9740;-17.4300;-16.0000;-1.4300
1296.1730;-17.7200;-15.9700;-1.7500
1296.3720;-18.0600;-15.9300;-2.1300
1296.5710;-18.4400;-15.8900;-2.5500
1296.7700;-18.9100;-15.8700;-3.0400
1296.9690;-19.4100;-15.8200;-3.5900
1297.1680;-19.9900;-15.8000;-4.1900
1297.3670;-20.6500;-15.7500;-4.9000
1297.5660;-21.3800;-15.7200;-5.6600
1297.7660;-22.2300;-15.6900;-6.5400
1297.9650;-23.1600;-15.6600;-7.5000
1298.1640;-24.2200;-15.6400;-8.5800
1298.3630;-25.3700;-15.6000;-9.7700
1298.5620;-26.5600;-15.5600;-11.0000
1298.7610;-27.7400;-15.5400;-12.2000
1298.9600;-28.8200;-15.5100;-13.3100
1299.1590;-29.0400;-15.5000;-13.5400
1299.3580;-28.7000;-15.4600;-13.2400
1299.5580;-27.7900;-15.4300;-12.3600
1299.7570;-26.6100;-15.4000;-11.2100
1299.9560;-25.1800;-15.3800;-9.8000
1300.1550;-24.1900;-15.3700;-8.8200
1300.3540;-23.1200;-15.3300;-7.7900
1300.5530;-22.1500;-15.3100;-6.8400
1300.7520;-21.2800;-15.2800;-6.0000
1300.9510;-20.5100;-15.2600;-5.2500
1301.1500;-19.8200;-15.2500;-4.5700
1301.3500;-19.2100;-15.2200;-3.9900
1301.5490;-18.6900;-15.2200;-3.4700
1301.7480;-18.2100;-15.1900;-3.0200
1301.9470;-17.8000;-15.1700;-2.6300
1302.1460;-17.4400;-15.1700;-2.2700
1302.3450;-17.1300;-15.1500;-1.9800
1302.5440;-16.8800;-15.1500;-1.7300
1302.7430;-16.6500;-15.1200;-1.5300
1302.9430;-16.4900;-15.1000;-1.3900
1303.1420;-16.3500;-15.1000;-1.2500
1303.3410;-16.2500;-15.0800;-1.1700
1303.5400;-16.2100;-15.0900;-1.1200
1303.7390;-16.1900;-15.0700;-1.1200
1303.9380;-16.2200;-15.0600;-1.1600
1304.1370;-16.2800;-15.0600;-1.2200
1304.3360;-16.3800;-15.0500;-1.3300
1304.5350;-16.5200;-15.0600;-1.4600
1304.7350;-16.6800;-15.0600;-1.6200
1304.9340;-16.9100;-15.0600;-1.8500
1305.1330;-17.1500;-15.0600;-2.0900
1305.3320;-17.4400;-15.0600;-2.3800
1305.5310;-17.7600;-15.0800;-2.6800
1305.7300;-18.1200;-15.0800;-3.0400
1305.9290;-18.5200;-15.0900;-3.4300
1306.1280;-18.9400;-15.1000;-3.8400
1306.3270;-19.4000;-15.1100;-4.2900
1306.5270;-19.8800;-15.1400;-4.7400
1306.7260;-20.3700;-15.1400;-5.2300
1306.9250;-20.8600;-15.1700;-5.6900
1307.1240;-21.3400;-15.1700;-6.1700
1307.3230;-21.7700;-15.1900;-6.5800
1307.5220;-22.1200;-15.2100;-6.9100
1307.7210;-22.3700;-15.2300;-7.1400
1307.9200;-22.5000;-15.2600;-7.2400
1308.1200;-22.5000;-15.2700;-7.2300
1308.3190;-22.3700;-15.2900;-7.0800
1308.5180;-22.1200;-15.3200;-6.8000
1308.7170;-21.7800;-15.3400;-6.4400
1308.9160;-21.3800;-15.3700;-6.0100
1309.1150;-20.9600;-15.3800;-5.5800
1309.3140;-20.5400;-15.4100;-5.1300
1309.5130;-20.1100;-15.4300;-4.6800
1309.7120;-19.7000;-15.4500;-4.2500
1309.9120;-19.3200;-15.4800;-3.8400
