Wavelength;Intensity_Meas;Intensity_Ref;Difference_dB
1200.0000;-60.5000;-55.6000;-4.9000
1200.1990;-60.4000;-55.5600;-4.8400
1200.3980;-60.3600;-55.5400;-4.8200
1200.5970;-60.3900;-55.5000;-4.8900
1200.7970;-60.3600;-55.4800;-4.8800
1200.9960;-60.2600;-55.4400;-4.8200
1201.1950;-60.2300;-55.3900;-4.8400
1201.3940;-60.2300;-55.3500;-4.8800
1201.5930;-60.2400;-55.3200;-4.9200
1201.7920;-60.1700;-55.2800;-4.8900
1201.9910;-60.1000;-55.2100;-4.8900
1202.1900;-60.1100;-55.1600;-4.9500
1202.3890;-60.1400;-55.1100;-5.0300
1202.5890;-60.1100;-55.0800;-5.0300
1202.7880;-60.0100;-55.0100;-5.0000
1202.9870;-60.0100;-54.9400;-5.0700
1203.1860;-60.0300;-54.8900;-5.1400
1203.3850;-59.9900;-54.8700;-5.1200
1203.5840;-59.9600;-54.8100;-5.1500
1203.7830;-59.9300;-54.7500;-5.1800
1203.9820;-59.9400;-54.7200;-5.2200
1204.1810;-59.9500;-54.6800;-5.2700
1204.3810;-59.8800;-54.6400;-5.2400
1204.5800;-59.8600;-54.6000;-5.2600
1204.7790;-59.9100;-54.5800;-5.3300
1204.9780;-59.9400;-54.5500;-5.3900
1205.1770;-59.9300;-54.5100;-5.4200
1205.3760;-59.8900;-54.4800;-5.4100
1205.5750;-59.9500;-54.4600;-5.4900
1205.7740;-59.9700;-54.4400;-5.5300
1205.9740;-59.9500;-54.4400;-5.5100
1206.1730;-59.9300;-54.4100;-5.5200
1206.3720;-59.9000;-54.3800;-5.5200
1206.5710;-59.9500;-54.3500;-5.6000
1206.7700;-59.9200;-54.3400;-5.5800
1206.9690;-59.8200;-54.3100;-5.5100
1207.1680;-59.7900;-54.2700;-5.5200
1207.3670;-59.7900;-54.2400;-5.5500
1207.5660;-59.7600;-54.2200;-5.5400
1207.7660;-59.6300;-54.1900;-5.4400
1207.9650;-59.5700;-54.1500;-5.4200
1208.1640;-59.5600;-54.0900;-5.4700
1208.3630;-59.5100;-54.0700;-5.4400
1208.5620;-59.3900;-54.0300;-5.3600
1208.7610;-59.3100;-53.9700;-5.3400
1208.9600;-59.2700;-53.9200;-5.3500
1209.1590;-59.2500;-53.8600;-5.3900
1209.3580;-59.1400;-53.8200;-5.3200
1209.5580;-59.0300;-53.7600;-5.2700
1209.7570;-59.0200;-53.7100;-5.3100
1209.9560;-59.0000;-53.6500;-5.3500
1210.1550;-58.9200;-53.6100;-5.3100
1210.3540;-58.8000;-53.5700;-5.2300
1210.5530;-58.7600;-53.4900;-5.2700
1210.7520;-58.7600;-53.4400;-5.3200
1210.9510;-58.7000;-53.4100;-5.2900
1211.1500;-58.6000;-53.3500;-5.2500
1211.3500;-58.5400;-53.3100;-5.2300
1211.5490;-58.5700;-53.2600;-5.3100
1211.7480;-58.5600;-53.2300;-5.3300
1211.9470;-58.4600;-53.2100;-5.2500
1212.1460;-58.4400;-53.1600;-5.2800
1212.3450;-58.4800;-53.1200;-5.3600
1212.5440;-58.5100;-53.1000;-5.4100
1212.7430;-58.4600;-53.0700;-5.3900
1212.9430;-58.4400;-53.0300;-5.4100
1213.1420;-58.4900;-52.9900;-5.5000
1213.3410;-58.5100;-52.9800;-5.5300
1213.5400;-58.4900;-52.9500;-5.5400
1213.7390;-58.4600;-52.9000;-5.5600
1213.9380;-58.4800;-52.8700;-5.6100
1214.1370;-58.5300;-52.8300;-5.7000
1214.3360;-58.4700;-52.8000;-5.6700
1214.5350;-58.4000;-52.7600;-5.6400
1214.7350;-58.4000;-52.7100;-5.6900
1214.9340;-58.4200;-52.6600;-5.7600
1215.1330;-58.3400;-52.6200;-5.7200
1215.3320;-58.2100;-52.5800;-5.6300
1215.5310;-58.1800;-52.5100;-5.6700
1215.7300;-58.1400;-52.4500;-5.6900
1215.9290;-58.0500;-52.4200;-5.6300
1216.1280;-57.9300;-52.3500;-5.5800
1216.3270;-57.8400;-52.2900;-5.5500
1216.5270;-57.7800;-52.2300;-5.5500
1216.7260;-57.7000;-52.1700;-5.5300
1216.9250;-57.5400;-52.1200;-5.4200
1217.1240;-57.4300;-52.0500;-5.3800
1217.3230;-57.3500;-52.0000;-5.3500
1217.5220;-57.2700;-51.9400;-5.3300
1217.7210;-57.1100;-51.8900;-5.2200
1217.9200;-56.9800;-51.8400;-5.1400
1218.1200;-56.9200;-51.7700;-5.1500
1218.3190;-56.8300;-51.7400;-5.0900
1218.5180;-56.7000;-51.6900;-5.0100
1218.7170;-56.5900;-51.6500;-4.9400
1218.9160;-56.5300;-51.6100;-4.9200
1219.1150;-56.4900;-51.5600;-4.9300
1219.3140;-56.3800;-51.5400;-4.8400
1219.5130;-56.3100;-51.5000;-4.8100
1219.7120;-56.3100;-51.4500;-4.8600
1219.9120;-56.3000;-51.4200;-4.8800
1220.1110;-56.2600;-51.3900;-4.8700
1220.3100;-56.2100;-51.3500;-4.8600
1220.5090;-56.2500;-51.3000;-4.9500
1220.7080;-56.3000;-51.2600;-5.0400
1220.9070;-56.2900;-51.2200;-5.0700
1221.1060;-56.2900;-51.1600;-5.1300
1221.3050;-56.3300;-51.1200;-5.2100
1221.5040;-56.3800;-51.0400;-5.3400
1221.7040;-56.4100;-50.9900;-5.4200
1221.9030;-56.4100;-50.9400;-5.4700
1222.1020;-56.4700;-50.8600;-5.6100
1222.3010;-56.5100;-50.8100;-5.7000
1222.5000;-56.5200;-50.7300;-5.7900
1222.6990;-56.5200;-50.6700;-5.8500
1222.8980;-56.5500;-50.5900;-5.9600
1223.0970;-56.6100;-50.5100;-6.1000
1223.2970;-56.5900;-50.4600;-6.1300
1223.4960;-56.5600;-50.3700;-6.1900
1223.6950;-56.5600;-50.3000;-6.2600
1223.8940;-56.5800;-50.2400;-6.3400
1224.0930;-56.5300;-50.1600;-6.3700
1224.2920;-56.4600;-50.1100;-6.3500
1224.4910;-56.4100;-50.0200;-6.3900
1224.6900;-56.3900;-49.9600;-6.4300
1224.8890;-56.2900;-49.9000;-6.3900
1225.0890;-56.1700;-49.8400;-6.3300
1225.2880;-56.0400;-49.7800;-6.2600
1225.4870;-55.9300;-49.7100;-6.2200
1225.6860;-55.7500;-49.6600;-6.0900
1225.8850;-55.6000;-49.6200;-5.9800
1226.0840;-55.4400;-49.5500;-5.8900
1226.2830;-55.3100;-49.5100;-5.8000
1226.4820;-55.1400;-49.4400;-5.7000
1226.6810;-54.9300;-49.4000;-5.5300
1226.8810;-54.7800;-49.3500;-5.4300
1227.0800;-54.6400;-49.2800;-5.3600
1227.2790;-54.4800;-49.2400;-5.2400
1227.4780;-54.3100;-49.1700;-5.1400
1227.6770;-54.1800;-49.1100;-5.0700
1227.8760;-54.0800;-49.0500;-5.0300
1228.0750;-53.9700;-48.9800;-4.9900
1228.2740;-53.8300;-48.9200;-4.9100
1228.4740;-53.7500;-48.8400;-4.9100
1228.6730;-53.7000;-48.7700;-4.9300
1228.8720;-53.6100;-48.7000;-4.9100
1229.0710;-53.5400;-48.6200;-4.9200
1229.2700;-53.5000;-48.5500;-4.9500
1229.4690;-53.4800;-48.4500;-5.0300
1229.6680;-53.4300;-48.3800;-5.0500
1229.8670;-53.3900;-48.3000;-5.0900
1230.0660;-53.4100;-48.2100;-5.2000
1230.2660;-53.4000;-48.1300;-5.2700
1230.4650;-53.3800;-48.0400;-5.3400
1230.6640;-53.3800;-47.9600;-5.4200
1230.8630;-53.4300;-47.8900;-5.5400
1231.0620;-53.4700;-47.8100;-5.6600
1231.2610;-53.4900;-47.7600;-5.7300
1231.4600;-53.5300;-47.6800;-5.8500
1231.6590;-53.5900;-47.6200;-5.9700
1231.8580;-53.6300;-47.5500;-6.0800
1232.0580;-53.6700;-47.5000;-6.1700
1232.2570;-53.6900;-47.4400;-6.2500
1232.4560;-53.7400;-47.3700;-6.3700
1232.6550;-53.7400;-47.3200;-6.4200
1232.8540;-53.7100;-47.2500;-6.4600
1233.0530;-53.7000;-47.2000;-6.5000
1233.2520;-53.6700;-47.1500;-6.5200
1233.4510;-53.5900;-47.0700;-6.5200
1233.6500;-53.4800;-47.0300;-6.4500
1233.8500;-53.3800;-46.9500;-6.4300
1234.0490;-53.3000;-46.8900;-6.4100
1234.2480;-53.1300;-46.8300;-6.3000
1234.4470;-52.9800;-46.7500;-6.2300
1234.6460;-52.8300;-46.6900;-6.1400
1234.8450;-52.7000;-46.6100;-6.0900
1235.0440;-52.5200;-46.5300;-5.9900
1235.2430;-52.3400;-46.4600;-5.8800
1235.4430;-52.2000;-46.3600;-5.8400
1235.6420;-52.0500;-46.2900;-5.7600
1235.8410;-51.8700;-46.1900;-5.6800
1236.0400;-51.7400;-46.1100;-5.6300
1236.2390;-51.6100;-46.0200;-5.5900
1236.4380;-51.4900;-45.9100;-5.5800
1236.6370;-51.3400;-45.8300;-5.5100
1236.8360;-51.2200;-45.7400;-5.4800
1237.0350;-51.1500;-45.6700;-5.4800
1237.2350;-51.0400;-45.5700;-5.4700
1237.4340;-50.9400;-45.4700;-5.4700
1237.6330;-50.8600;-45.3900;-5.4700
1237.8320;-50.8200;-45.3100;-5.5100
1238.0310;-50.7500;-45.2400;-5.5100
1238.2300;-50.6900;-45.1500;-5.5400
1238.4290;-50.6700;-45.0700;-5.6000
1238.6280;-50.6500;-45.0000;-5.6500
1238.8270;-50.6100;-44.9100;-5.7000
1239.0270;-50.5900;-44.8500;-5.7400
1239.2260;-50.5700;-44.7500;-5.8200
1239.4250;-50.5600;-44.6700;-5.8900
1239.6240;-50.5100;-44.6000;-5.9100
1239.8230;-50.4700;-44.5100;-5.9600
1240.0220;-50.4400;-44.4400;-6.0000
1240.2210;-50.3600;-44.3400;-6.0200
1240.4200;-50.2700;-44.2500;-6.0200
1240.6200;-50.1700;-44.1600;-6.0100
1240.8190;-50.0600;-44.0600;-6.0000
1241.0180;-49.9000;-43.9600;-5.9400
1241.2170;-49.7200;-43.8500;-5.8700
1241.4160;-49.5800;-43.7400;-5.8400
1241.6150;-49.3800;-43.6200;-5.7600
1241.8140;-49.1800;-43.5000;-5.6800
1242.0130;-48.9900;-43.4000;-5.5900
1242.2120;-48.8100;-43.2700;-5.5400
1242.4120;-48.6400;-43.1500;-5.4900
1242.6110;-48.4300;-43.0300;-5.4000
1242.8100;-48.2700;-42.9000;-5.3700
1243.0090;-48.1200;-42.7800;-5.3400
1243.2080;-47.9800;-42.6500;-5.3300
1243.4070;-47.8600;-42.5300;-5.3300
1243.6060;-47.7400;-42.4000;-5.3400
1243.8050;-47.6600;-42.2800;-5.3800
1244.0040;-47.5700;-42.1600;-5.4100
1244.2040;-47.5200;-42.0300;-5.4900
1244.4030;-47.5100;-41.9100;-5.6000
1244.6020;-47.4800;-41.7900;-5.6900
1244.8010;-47.4800;-41.6700;-5.8100
1245.0000;-47.5100;-41.5700;-5.9400
1245.1990;-47.5500;-41.4400;-6.1100
1245.3980;-47.6200;-41.3300;-6.2900
1245.5970;-47.6800;-41.2000;-6.4800
1245.7970;-47.7800;-41.0800;-6.7000
1245.9960;-47.8800;-40.9700;-6.9100
1246.1950;-47.9800;-40.8400;-7.1400
1246.3940;-48.1000;-40.7200;-7.3800
1246.5930;-48.1800;-40.5800;-7.6000
1246.7920;-48.2700;-40.4600;-7.8100
1246.9910;-48.3000;-40.3300;-7.9700
1247.1900;-48.3100;-40.1900;-8.1200
1247.3890;-48.2800;-40.0500;-8.2300
1247.5890;-48.1400;-39.9100;-8.2300
1247.7880;-47.9700;-39.7700;-8.2000
1247.9870;-47.7100;-39.6400;-8.0700
1248.1860;-47.3900;-39.4900;-7.9000
1248.3850;-47.0200;-39.3500;-7.6700
1248.5840;-46.5900;-39.2000;-7.3900
1248.7830;-46.1500;-39.0500;-7.1000
1248.9820;-45.5900;-38.9300;-6.6600
1249.1810;-45.2000;-38.7700;-6.4300
1249.3810;-44.7200;-38.6400;-6.0800
1249.5800;-44.2400;-38.5000;-5.7400
1249.7790;-43.7800;-38.3600;-5.4200
1249.9780;-43.3300;-38.2200;-5.1100
1250.1770;-42.9200;-38.0800;-4.8400
1250.3760;-42.5100;-37.9500;-4.5600
1250.5750;-42.1300;-37.8100;-4.3200
1250.7740;-41.7800;-37.6800;-4.1000
1250.9740;-41.4600;-37.5700;-3.8900
1251.1730;-41.1600;-37.4300;-3.7300
1251.3720;-40.8700;-37.3000;-3.5700
1251.5710;-40.6200;-37.1800;-3.4400
1251.7700;-40.4100;-37.0400;-3.3700
1251.9690;-40.2000;-36.9200;-3.2800
1252.1680;-40.0400;-36.7700;-3.2700
1252.3670;-39.8800;-36.6500;-3.2300
1252.5660;-39.7700;-36.5200;-3.2500
1252.7660;-39.6800;-36.3800;-3.3000
1252.9650;-39.6200;-36.2600;-3.3600
1253.1640;-39.6000;-36.1100;-3.4900
1253.3630;-39.5800;-35.9700;-3.6100
1253.5620;-39.6100;-35.8000;-3.8100
1253.7610;-39.6500;-35.6900;-3.9600
1253.9600;-39.7200;-35.5400;-4.1800
1254.1590;-39.8200;-35.4000;-4.4200
1254.3580;-39.9100;-35.2500;-4.6600
1254.5580;-40.0300;-35.1100;-4.9200
1254.7570;-40.1500;-34.9700;-5.1800
1254.9560;-40.2600;-34.8100;-5.4500
1255.1550;-40.3900;-34.6700;-5.7200
1255.3540;-40.4600;-34.5400;-5.9200
1255.5530;-40.5000;-34.4000;-6.1000
1255.7520;-40.4600;-34.2700;-6.1900
1255.9510;-40.3800;-34.1200;-6.2600
1256.1500;-40.2600;-34.0000;-6.2600
1256.3500;-40.0700;-33.8600;-6.2100
1256.5490;-39.8500;-33.7300;-6.1200
1256.7480;-39.5200;-33.6200;-5.9000
1256.9470;-39.1200;-33.4700;-5.6500
1257.1460;-38.6900;-33.3500;-5.3400
1257.3450;-38.2100;-33.2300;-4.9800
1257.5440;-37.7600;-33.1000;-4.6600
1257.7430;-37.2900;-32.9900;-4.3000
1257.9430;-36.8200;-32.8400;-3.9800
1258.1420;-36.3800;-32.7300;-3.6500
1258.3410;-35.8500;-32.5900;-3.2600
1258.5400;-35.5200;-32.4700;-3.0500
1258.7390;-35.0900;-32.3500;-2.7400
1258.9380;-34.7100;-32.2000;-2.5100
1259.1370;-34.3500;-32.0800;-2.2700
1259.3360;-34.0100;-31.9300;-2.0800
1259.5350;-33.7300;-31.8000;-1.9300
1259.7350;-33.4500;-31.6700;-1.7800
1259.9340;-33.2200;-31.5200;-1.7000
1260.1330;-33.0000;-31.4000;-1.6000
1260.3320;-32.8200;-31.2600;-1.5600
1260.5310;-32.6800;-31.1300;-1.5500
1260.7300;-32.5600;-31.0000;-1.5600
1260.9290;-32.4900;-30.8600;-1.6300
1261.1280;-32.4300;-30.7300;-1.7000
1261.3270;-32.4200;-30.5900;-1.8300
1261.5270;-32.4600;-30.4700;-1.9900
1261.7260;-32.5100;-30.3500;-2.1600
1261.9250;-32.6300;-30.2100;-2.4200
1262.1240;-32.7600;-30.0900;-2.6700
1262.3230;-32.9500;-29.9600;-2.9900
1262.5220;-33.2000;-29.8500;-3.3500
1262.7210;-33.4700;-29.7300;-3.7400
1262.9200;-33.8100;-29.6000;-4.2100
1263.1200;-34.1900;-29.4800;-4.7100
1263.3190;-34.6500;-29.3500;-5.3000
1263.5180;-35.1800;-29.2300;-5.9500
1263.7170;-35.7600;-29.1200;-6.6400
1263.9160;-36.4100;-28.9900;-7.4200
1264.1150;-37.1000;-28.8700;-8.2300
1264.3140;-37.8500;-28.7400;-9.1100
1264.5130;-38.8000;-28.6200;-10.1800
1264.7120;-39.3900;-28.5000;-10.8900
1264.9120;-39.9600;-28.3600;-11.6000
1265.1110;-40.2500;-28.2400;-12.0100
1265.3100;-40.1800;-28.1000;-12.0800
1265.5090;-39.7000;-27.9900;-11.7100
1265.7080;-38.9300;-27.8600;-11.0700
1265.9070;-38.0100;-27.7300;-10.2800
1266.1060;-37.0100;-27.6100;-9.4000
1266.3050;-35.8700;-27.4800;-8.3900
1266.5040;-35.1000;-27.3700;-7.7300
1266.7040;-34.2600;-27.2500;-7.0100
1266.9030;-33.4400;-27.1200;-6.3200
1267.1020;-32.7200;-27.0200;-5.7000
1267.3010;-32.0500;-26.8900;-5.1600
1267.5000;-31.4600;-26.7900;-4.6700
1267.6990;-30.9200;-26.6800;-4.2400
1267.8980;-30.4100;-26.5600;-3.8500
1268.0970;-29.9900;-26.4700;-3.5200
1268.2970;-29.5900;-26.3400;-3.2500
1268.4960;-29.2500;-26.2500;-3.0000
1268.6950;-28.9500;-26.1300;-2.8200
1268.8940;-28.6700;-26.0100;-2.6600
1269.0930;-28.4400;-25.9100;-2.5300
1269.2920;-28.2500;-25.8000;-2.4500
1269.4910;-28.1000;-25.7100;-2.3900
1269.6900;-28.0000;-25.5900;-2.4100
1269.8890;-27.9200;-25.4900;-2.4300
1270.0890;-27.8800;-25.3700;-2.5100
1270.2880;-27.8900;-25.2600;-2.6300
1270.4870;-27.9300;-25.1700;-2.7600
1270.6860;-28.0200;-25.0500;-2.9700
1270.8850;-28.1400;-24.9400;-3.2000
1271.0840;-28.3000;-24.8200;-3.4800
1271.2830;-28.5100;-24.7200;-3.7900
1271.4820;-28.7500;-24.6200;-4.1300
1271.6810;-29.0500;-24.5000;-4.5500
1271.8810;-29.3500;-24.4100;-4.9400
1272.0800;-29.7100;-24.2900;-5.4200
1272.2790;-30.0900;-24.1900;-5.9000
1272.4780;-30.4900;-24.0900;-6.4000
1272.6770;-30.9100;-23.9900;-6.9200
1272.8760;-31.3000;-23.9000;-7.4000
1273.0750;-31.6700;-23.7900;-7.8800
1273.2740;-31.9600;-23.7000;-8.2600
1273.4740;-32.1500;-23.6100;-8.5400
1273.6730;-32.2400;-23.5100;-8.7300
1273.8720;-32.1800;-23.4200;-8.7600
1274.0710;-32.0000;-23.3200;-8.6800
1274.2700;-31.6600;-23.2300;-8.4300
1274.4690;-31.2300;-23.1500;-8.0800
1274.6680;-30.7400;-23.0500;-7.6900
1274.8670;-30.1900;-22.9700;-7.2200
1275.0660;-29.6400;-22.8700;-6.7700
1275.2660;-29.0800;-22.7700;-6.3100
1275.4650;-28.5400;-22.6800;-5.8600
1275.6640;-28.0300;-22.5800;-5.4500
1275.8630;-27.5400;-22.5000;-5.0400
1276.0620;-27.1100;-22.3900;-4.7200
1276.2610;-26.6800;-22.3000;-4.3800
1276.4600;-26.3100;-22.2100;-4.1000
1276.6590;-25.9200;-22.1000;-3.8200
1276.8580;-25.6900;-22.0200;-3.6700
1277.0580;-25.4300;-21.9200;-3.5100
1277.2570;-25.2200;-21.8300;-3.3900
1277.4560;-25.0600;-21.7400;-3.3200
1277.6550;-24.9100;-21.6500;-3.2600
1277.8540;-24.8200;-21.5700;-3.2500
1278.0530;-24.7500;-21.4700;-3.2800
1278.2520;-24.7200;-21.3900;-3.3300
1278.4510;-24.7300;-21.3000;-3.4300
1278.6500;-24.7700;-21.2200;-3.5500
1278.8500;-24.8600;-21.1400;-3.7200
1279.0490;-24.9600;-21.0500;-3.9100
1279.2480;-25.1100;-20.9800;-4.1300
1279.4470;-25.3000;-20.8900;-4.4100
1279.6460;-25.5000;-20.8100;-4.6900
1279.8450;-25.7500;-20.7400;-5.0100
1280.0440;-26.0000;-20.6500;-5.3500
1280.2430;-26.2800;-20.5900;-5.6900
1280.4430;-26.5700;-20.5000;-6.0700
1280.6420;-26.8300;-20.4300;-6.4000
1280.8410;-27.0900;-20.3500;-6.7400
1281.0400;-27.2800;-20.2700;-7.0100
1281.2390;-27.4000;-20.2000;-7.2000
1281.4380;-27.4200;-20.1200;-7.3000
1281.6370;-27.3300;-20.0500;-7.2800
1281.8360;-27.1300;-19.9700;-7.1600
1282.0350;-26.8100;-19.8900;-6.9200
1282.2350;-26.4100;-19.8300;-6.5800
1282.4340;-25.9100;-19.7400;-6.1700
1282.6330;-25.3800;-19.6800;-5.7000
1282.8320;-24.8300;-19.6100;-5.2200
1283.0310;-24.2600;-19.5300;-4.7300
1283.2300;-23.7100;-19.4700;-4.2400
1283.4290;-23.1600;-19.4000;-3.7600
1283.6280;-22.6300;-19.3300;-3.3000
1283.8270;-22.1400;-19.2600;-2.8800
1284.0270;-21.6600;-19.1900;-2.4700
1284.2260;-21.2300;-19.1300;-2.1000
1284.4250;-20.8200;-19.0600;-1.7600
1284.6240;-20.4500;-19.0000;-1.4500
1284.8230;-20.1300;-18.9300;-1.2000
1285.0220;-19.8200;-18.8600;-0.9600
1285.2210;-19.5600;-18.8000;-0.7600
1285.4200;-19.3200;-18.7300;-0.5900
1285.6200;-19.1200;-18.6700;-0.4500
1285.8190;-18.9700;-18.5900;-0.3800
1286.0180;-18.8300;-18.5300;-0.3000
1286.2170;-18.7500;-18.4700;-0.2800
1286.4160;-18.6900;-18.3900;-0.3000
1286.6150;-18.6800;-18.3400;-0.3400
1286.8140;-18.7100;-18.2700;-0.4400
1287.0130;-18.7600;-18.2000;-0.5600
1287.2120;-18.8800;-18.1400;-0.7400
1287.4120;-19.0100;-18.0700;-0.9400
1287.6110;-19.2000;-18.0200;-1.1800
1287.8100;-19.4400;-17.9400;-1.5000
1288.0090;-19.7200;-17.8900;-1.8300
1288.2080;-20.0800;-17.8200;-2.2600
1288.4070;-20.4700;-17.7600;-2.7100
1288.6060;-20.9300;-17.7100;-3.2200
1288.8050;-21.4600;-17.6500;-3.8100
1289.0040;-22.0600;-17.6000;-4.4600
1289.2040;-22.7700;-17.5300;-5.2400
1289.4030;-23.5400;-17.4800;-6.0600
1289.6020;-24.4300;-17.4400;-6.9900
1289.8010;-25.4000;-17.3800;-8.0200
1290.0000;-26.4500;-17.3400;-9.1100
1290.1990;-27.5600;-17.2800;-10.2800
1290.3980;-28.8100;-17.2300;-11.5800
1290.5970;-29.4400;-17.2000;-12.2400
1290.7970;-29.7200;-17.1400;-12.5800
1290.9960;-29.3300;-17.1000;-12.2300
1291.1950;-28.4000;-17.0400;-11.3600
1291.3940;-27.2300;-17.0000;-10.2300
1291.5930;-25.7900;-16.9400;-8.8500
1291.7920;-24.8100;-16.9000;-7.9100
1291.9910;-23.7500;-16.8600;-6.8900
1292.1900;-22.7600;-16.8000;-5.9600
1292.3890;-21.8900;-16.7600;-5.1300
1292.5890;-21.0900;-16.7100;-4.3800
1292.7880;-20.3900;-16.6600;-3.7300
1292.9870;-19.7500;-16.6300;-3.1200
1293.1860;-19.1900;-16.5700;-2.6200
1293.3850;-18.7100;-16.5400;-2.1700
1293.5840;-18.2600;-16.4800;-1.7800
1293.7830;-17.8900;-16.4400;-1.4500
1293.9820;-17.5500;-16.4100;-1.1400
1294.1810;-17.2800;-16.3600;-0.9200
1294.3810;-17.0500;-16.3400;-0.7100
1294.5800;-16.8400;-16.2700;-0.5700
1294.7790;-16.7100;-16.2400;-0.4700
1294.9780;-16.6000;-16.2000;-0.4000
1295.1770;-16.5500;-16.1600;-0.3900
1295.3760;-16.5300;-16.1300;-0.4000
1295.5750;-16.5300;-16.0800;-0.4500
1295.7740;-16.6100;-16.0600;-0.5500
1295.9740;-16.7000;-16.0000;-0.7000
1296.1730;-16.8500;-15.9700;-0.8800
1296.3720;-17.0500;-15.9300;-1.1200
1296.5710;-17.2800;-15.8900;-1.3900
1296.7700;-17.5900;-15.8700;-1.7200
1296.9690;-17.9200;-15.8200;-2.1000
1297.1680;-18.3300;-15.8000;-2.5300
1297.3670;-18.8000;-15.7500;-3.0500
1297.5660;-19.3200;-15.7200;-3.6000
1297.7660;-19.9500;-15.6900;-4.2600
1297.9650;-20.6500;-15.6600;-4.9900
1298.1640;-21.4800;-15.6400;-5.8400
1298.3630;-22.4000;-15.6000;-6.8000
1298.5620;-23.4600;-15.5600;-7.9000
1298.7610;-24.7000;-15.5400;-9.1600
1298.9600;-26.1200;-15.5100;-10.6100
1299.1590;-27.7200;-15.5000;-12.2200
1299.3580;-29.8100;-15.4600;-14.3500
1299.5580;-30.9500;-15.4300;-15.5200
1299.7570;-31.4900;-15.4000;-16.0900
1299.9560;-30.7500;-15.3800;-15.3700
1300.1550;-29.1700;-15.3700;-13.8000
1300.3540;-27.4300;-15.3300;-12.1000
1300.5530;-25.5600;-15.3100;-10.2500
1300.7520;-24.3700;-15.2800;-9.0900
1300.9510;-23.1400;-15.2600;-7.8800
1301.1500;-22.0700;-15.2500;-6.8200
1301.3500;-21.1300;-15.2200;-5.9100
1301.5490;-20.3000;-15.2200;-5.0800
1301.7480;-19.5700;-15.1900;-4.3800
1301.9470;-18.9400;-15.1700;-3.7700
1302.1460;-18.3800;-15.1700;-3.2100
1302.3450;-17.9000;-15.1500;-2.7500
1302.5440;-17.4700;-15.1500;-2.3200
1302.7430;-17.1000;-15.1200;-1.9800
1302.9430;-16.7800;-15.1000;-1.6800
1303.1420;-16.5200;-15.1000;-1.4200
1303.3410;-16.3200;-15.0800;-1.2400
1303.5400;-16.1400;-15.0900;-1.0500
1303.7390;-16.0000;-15.0700;-0.9300
1303.9380;-15.9300;-15.0600;-0.8700
1304.1370;-15.9000;-15.0600;-0.8400
1304.3360;-15.8900;-15.0500;-0.8400
1304.5350;-15.9400;-15.0600;-0.8800
1304.7350;-16.0300;-15.0600;-0.9700
1304.9340;-16.1400;-15.0600;-1.0800
1305.1330;-16.3200;-15.0600;-1.2600
1305.3320;-16.5200;-15.0600;-1.4600
1305.5310;-16.7800;-15.0800;-1.7000
1305.7300;-17.0900;-15.0800;-2.0100
1305.9290;-17.4300;-15.0900;-2.3400
1306.1280;-17.8500;-15.1000;-2.7500
1306.3270;-18.4000;-15.1100;-3.2900
1306.5270;-18.8400;-15.1400;-3.7000
1306.7260;-19.4300;-15.1400;-4.2900
1306.9250;-20.0800;-15.1700;-4.9100
1307.1240;-20.8300;-15.1700;-5.6600
1307.3230;-21.6300;-15.1900;-6.4400
1307.5220;-22.5200;-15.2100;-7.3100
1307.7210;-23.4700;-15.2300;-8.2400
1307.9200;-24.4500;-15.2600;-9.1900
1308.1200;-25.4200;-15.2700;-10.1500
1308.3190;-26.2100;-15.2900;-10.9200
1308.5180;-26.7400;-15.3200;-11.4200
1308.7170;-26.8300;-15.3400;-11.4900
1308.9160;-26.4700;-15.3700;-11.1000
1309.1150;-25.8100;-15.3800;-10.4300
1309.3140;-24.9200;-15.4100;-9.5100
1309.5130;-24.0200;-15.4300;-8.5900
1309.7120;-23.1000;-15.4500;-7.6500
1309.9120;-22.2500;-15.4800;-6.7700
