Wavelength;Intensity_Meas;Intensity_Ref;Difference_dB
1200.0000;-60.4300;-55.6000;-4.8300
1200.1990;-60.3600;-55.5600;-4.8000
1200.3980;-60.3100;-55.5400;-4.7700
1200.5970;-60.3000;-55.5000;-4.8000
1200.7970;-60.2500;-55.4800;-4.7700
1200.9960;-60.1700;-55.4400;-4.7300
1201.1950;-60.1000;-55.3900;-4.7100
1201.3940;-60.1100;-55.3500;-4.7600
1201.5930;-60.1300;-55.3200;-4.8100
1201.7920;-60.0400;-55.2800;-4.7600
1201.9910;-59.9800;-55.2100;-4.7700
1202.1900;-59.9900;-55.1600;-4.8300
1202.3890;-59.9800;-55.1100;-4.8700
1202.5890;-59.9400;-55.0800;-4.8600
1202.7880;-59.8700;-55.0100;-4.8600
1202.9870;-59.8500;-54.9400;-4.9100
1203.1860;-59.8500;-54.8900;-4.9600
1203.3850;-59.8100;-54.8700;-4.9400
1203.5840;-59.7600;-54.8100;-4.9500
1203.7830;-59.7300;-54.7500;-4.9800
1203.9820;-59.7600;-54.7200;-5.0400
1204.1810;-59.7600;-54.6800;-5.0800
1204.3810;-59.6900;-54.6400;-5.0500
1204.5800;-59.6800;-54.6000;-5.0800
1204.7790;-59.7100;-54.5800;-5.1300
1204.9780;-59.7500;-54.5500;-5.2000
1205.1770;-59.7300;-54.5100;-5.2200
1205.3760;-59.6900;-54.4800;-5.2100
1205.5750;-59.7700;-54.4600;-5.3100
1205.7740;-59.7800;-54.4400;-5.3400
1205.9740;-59.7800;-54.4400;-5.3400
1206.1730;-59.7500;-54.4100;-5.3400
1206.3720;-59.7300;-54.3800;-5.3500
1206.5710;-59.7900;-54.3500;-5.4400
1206.7700;-59.7600;-54.3400;-5.4200
1206.9690;-59.6600;-54.3100;-5.3500
1207.1680;-59.6100;-54.2700;-5.3400
1207.3670;-59.6500;-54.2400;-5.4100
1207.5660;-59.6000;-54.2200;-5.3800
1207.7660;-59.4600;-54.1900;-5.2700
1207.9650;-59.3900;-54.1500;-5.2400
1208.1640;-59.4000;-54.0900;-5.3100
1208.3630;-59.3300;-54.0700;-5.2600
1208.5620;-59.2300;-54.0300;-5.2000
1208.7610;-59.1200;-53.9700;-5.1500
1208.9600;-59.0800;-53.9200;-5.1600
1209.1590;-59.0600;-53.8600;-5.2000
1209.3580;-58.9400;-53.8200;-5.1200
1209.5580;-58.8500;-53.7600;-5.0900
1209.7570;-58.8000;-53.7100;-5.0900
1209.9560;-58.7600;-53.6500;-5.1100
1210.1550;-58.6800;-53.6100;-5.0700
1210.3540;-58.5600;-53.5700;-4.9900
1210.5530;-58.5200;-53.4900;-5.0300
1210.7520;-58.5100;-53.4400;-5.0700
1210.9510;-58.4600;-53.4100;-5.0500
1211.1500;-58.3700;-53.3500;-5.0200
1211.3500;-58.3100;-53.3100;-5.0000
1211.5490;-58.3500;-53.2600;-5.0900
1211.7480;-58.3300;-53.2300;-5.1000
1211.9470;-58.2200;-53.2100;-5.0100
1212.1460;-58.1900;-53.1600;-5.0300
1212.3450;-58.2400;-53.1200;-5.1200
1212.5440;-58.2600;-53.1000;-5.1600
1212.7430;-58.2000;-53.0700;-5.1300
1212.9430;-58.1800;-53.0300;-5.1500
1213.1420;-58.2300;-52.9900;-5.2400
1213.3410;-58.2600;-52.9800;-5.2800
1213.5400;-58.2500;-52.9500;-5.3000
1213.7390;-58.2000;-52.9000;-5.3000
1213.9380;-58.2100;-52.8700;-5.3400
1214.1370;-58.2600;-52.8300;-5.4300
1214.3360;-58.1900;-52.8000;-5.3900
1214.5350;-58.1400;-52.7600;-5.3800
1214.7350;-58.1400;-52.7100;-5.4300
1214.9340;-58.1400;-52.6600;-5.4800
1215.1330;-58.0800;-52.6200;-5.4600
1215.3320;-57.9400;-52.5800;-5.3600
1215.5310;-57.9200;-52.5100;-5.4100
1215.7300;-57.8800;-52.4500;-5.4300
1215.9290;-57.7900;-52.4200;-5.3700
1216.1280;-57.6600;-52.3500;-5.3100
1216.3270;-57.5600;-52.2900;-5.2700
1216.5270;-57.5300;-52.2300;-5.3000
1216.7260;-57.4200;-52.1700;-5.2500
1216.9250;-57.2400;-52.1200;-5.1200
1217.1240;-57.1500;-52.0500;-5.1000
1217.3230;-57.0900;-52.0000;-5.0900
1217.5220;-57.0000;-51.9400;-5.0600
1217.7210;-56.8300;-51.8900;-4.9400
1217.9200;-56.7200;-51.8400;-4.8800
1218.1200;-56.6600;-51.7700;-4.8900
1218.3190;-56.5700;-51.7400;-4.8300
1218.5180;-56.4600;-51.6900;-4.7700
1218.7170;-56.3300;-51.6500;-4.6800
1218.9160;-56.3000;-51.6100;-4.6900
1219.1150;-56.2600;-51.5600;-4.7000
1219.3140;-56.1600;-51.5400;-4.6200
1219.5130;-56.1000;-51.5000;-4.6000
1219.7120;-56.0900;-51.4500;-4.6400
1219.9120;-56.0900;-51.4200;-4.6700
1220.1110;-56.0500;-51.3900;-4.6600
1220.3100;-56.0200;-51.3500;-4.6700
1220.5090;-56.0600;-51.3000;-4.7600
1220.7080;-56.0900;-51.2600;-4.8300
1220.9070;-56.1000;-51.2200;-4.8800
1221.1060;-56.0900;-51.1600;-4.9300
1221.3050;-56.1400;-51.1200;-5.0200
1221.5040;-56.2200;-51.0400;-5.1800
1221.7040;-56.2300;-50.9900;-5.2400
1221.9030;-56.2300;-50.9400;-5.2900
1222.1020;-56.2900;-50.8600;-5.4300
1222.3010;-56.3500;-50.8100;-5.5400
1222.5000;-56.3600;-50.7300;-5.6300
1222.6990;-56.3400;-50.6700;-5.6700
1222.8980;-56.3900;-50.5900;-5.8000
1223.0970;-56.4200;-50.5100;-5.9100
1223.2970;-56.4100;-50.4600;-5.9500
1223.4960;-56.3600;-50.3700;-5.9900
1223.6950;-56.3400;-50.3000;-6.0400
1223.8940;-56.3400;-50.2400;-6.1000
1224.0930;-56.2900;-50.1600;-6.1300
1224.2920;-56.2000;-50.1100;-6.0900
1224.4910;-56.1300;-50.0200;-6.1100
1224.6900;-56.0700;-49.9600;-6.1100
1224.8890;-55.9500;-49.9000;-6.0500
1225.0890;-55.7700;-49.8400;-5.9300
1225.2880;-55.6700;-49.7800;-5.8900
1225.4870;-55.5600;-49.7100;-5.8500
1225.6860;-55.4100;-49.6600;-5.7500
1225.8850;-55.2300;-49.6200;-5.6100
1226.0840;-55.0700;-49.5500;-5.5200
1226.2830;-54.9300;-49.5100;-5.4200
1226.4820;-54.7600;-49.4400;-5.3200
1226.6810;-54.5500;-49.4000;-5.1500
1226.8810;-54.4200;-49.3500;-5.0700
1227.0800;-54.2800;-49.2800;-5.0000
1227.2790;-54.1200;-49.2400;-4.8800
1227.4780;-53.9600;-49.1700;-4.7900
1227.6770;-53.8400;-49.1100;-4.7300
1227.8760;-53.7500;-49.0500;-4.7000
1228.0750;-53.6200;-48.9800;-4.6400
1228.2740;-53.5100;-48.9200;-4.5900
1228.4740;-53.4400;-48.8400;-4.6000
1228.6730;-53.4000;-48.7700;-4.6300
1228.8720;-53.3300;-48.7000;-4.6300
1229.0710;-53.2500;-48.6200;-4.6300
1229.2700;-53.2300;-48.5500;-4.6800
1229.4690;-53.2300;-48.4500;-4.7800
1229.6680;-53.1800;-48.3800;-4.8000
1229.8670;-53.1500;-48.3000;-4.8500
1230.0660;-53.1600;-48.2100;-4.9500
1230.2660;-53.1700;-48.1300;-5.0400
1230.4650;-53.1600;-48.0400;-5.1200
1230.6640;-53.1500;-47.9600;-5.1900
1230.8630;-53.2100;-47.8900;-5.3200
1231.0620;-53.2400;-47.8100;-5.4300
1231.2610;-53.2500;-47.7600;-5.4900
1231.4600;-53.2900;-47.6800;-5.6100
1231.6590;-53.3300;-47.6200;-5.7100
1231.8580;-53.3600;-47.5500;-5.8100
1232.0580;-53.3700;-47.5000;-5.8700
1232.2570;-53.3700;-47.4400;-5.9300
1232.4560;-53.4100;-47.3700;-6.0400
1232.6550;-53.3900;-47.3200;-6.0700
1232.8540;-53.3400;-47.2500;-6.0900
1233.0530;-53.2900;-47.2000;-6.0900
1233.2520;-53.2500;-47.1500;-6.1000
1233.4510;-53.1700;-47.0700;-6.1000
1233.6500;-53.0500;-47.0300;-6.0200
1233.8500;-52.9400;-46.9500;-5.9900
1234.0490;-52.8400;-46.8900;-5.9500
1234.2480;-52.6900;-46.8300;-5.8600
1234.4470;-52.5300;-46.7500;-5.7800
1234.6460;-52.4000;-46.6900;-5.7100
1234.8450;-52.2700;-46.6100;-5.6600
1235.0440;-52.0900;-46.5300;-5.5600
1235.2430;-51.9300;-46.4600;-5.4700
1235.4430;-51.8200;-46.3600;-5.4600
1235.6420;-51.6900;-46.2900;-5.4000
1235.8410;-51.5400;-46.1900;-5.3500
1236.0400;-51.4000;-46.1100;-5.2900
1236.2390;-51.3000;-46.0200;-5.2800
1236.4380;-51.2000;-45.9100;-5.2900
1236.6370;-51.0800;-45.8300;-5.2500
1236.8360;-50.9900;-45.7400;-5.2500
1237.0350;-50.9300;-45.6700;-5.2600
1237.2350;-50.8500;-45.5700;-5.2800
1237.4340;-50.7700;-45.4700;-5.3000
1237.6330;-50.7200;-45.3900;-5.3300
1237.8320;-50.7000;-45.3100;-5.3900
1238.0310;-50.6300;-45.2400;-5.3900
1238.2300;-50.5900;-45.1500;-5.4400
1238.4290;-50.5700;-45.0700;-5.5000
1238.6280;-50.5500;-45.0000;-5.5500
1238.8270;-50.5200;-44.9100;-5.6100
1239.0270;-50.4800;-44.8500;-5.6300
1239.2260;-50.4600;-44.7500;-5.7100
1239.4250;-50.4300;-44.6700;-5.7600
1239.6240;-50.3700;-44.6000;-5.7700
1239.8230;-50.3100;-44.5100;-5.8000
1240.0220;-50.2500;-44.4400;-5.8100
1240.2210;-50.1600;-44.3400;-5.8200
1240.4200;-50.0400;-44.2500;-5.7900
1240.6200;-49.9200;-44.1600;-5.7600
1240.8190;-49.8100;-44.0600;-5.7500
1241.0180;-49.6300;-43.9600;-5.6700
1241.2170;-49.4500;-43.8500;-5.6000
1241.4160;-49.2800;-43.7400;-5.5400
1241.6150;-49.0900;-43.6200;-5.4700
1241.8140;-48.9100;-43.5000;-5.4100
1242.0130;-48.7100;-43.4000;-5.3100
1242.2120;-48.5400;-43.2700;-5.2700
1242.4120;-48.3800;-43.1500;-5.2300
1242.6110;-48.2000;-43.0300;-5.1700
1242.8100;-48.0600;-42.9000;-5.1600
1243.0090;-47.9200;-42.7800;-5.1400
1243.2080;-47.8100;-42.6500;-5.1600
1243.4070;-47.7000;-42.5300;-5.1700
1243.6060;-47.6200;-42.4000;-5.2200
1243.8050;-47.5900;-42.2800;-5.3100
1244.0040;-47.5300;-42.1600;-5.3700
1244.2040;-47.5200;-42.0300;-5.4900
1244.4030;-47.5300;-41.9100;-5.6200
1244.6020;-47.5500;-41.7900;-5.7600
1244.8010;-47.6000;-41.6700;-5.9300
1245.0000;-47.6600;-41.5700;-6.0900
1245.1990;-47.7600;-41.4400;-6.3200
1245.3980;-47.8500;-41.3300;-6.5200
1245.5970;-47.9400;-41.2000;-6.7400
1245.7970;-48.0700;-41.0800;-6.9900
1245.9960;-48.1700;-40.9700;-7.2000
1246.1950;-48.2800;-40.8400;-7.4400
1246.3940;-48.3700;-40.7200;-7.6500
1246.5930;-48.4300;-40.5800;-7.8500
1246.7920;-48.4700;-40.4600;-8.0100
1246.9910;-48.4200;-40.3300;-8.0900
1247.1900;-48.3500;-40.1900;-8.1600
1247.3890;-48.2100;-40.0500;-8.1600
1247.5890;-47.9700;-39.9100;-8.0600
1247.7880;-47.7000;-39.7700;-7.9300
1247.9870;-47.3400;-39.6400;-7.7000
1248.1860;-46.9500;-39.4900;-7.4600
1248.3850;-46.5100;-39.3500;-7.1600
1248.5840;-46.0400;-39.2000;-6.8400
1248.7830;-45.4900;-39.0500;-6.4400
1248.9820;-45.0800;-38.9300;-6.1500
1249.1810;-44.6200;-38.7700;-5.8500
1249.3810;-44.1600;-38.6400;-5.5200
1249.5800;-43.7100;-38.5000;-5.2100
1249.7790;-43.2700;-38.3600;-4.9100
1249.9780;-42.8600;-38.2200;-4.6400
1250.1770;-42.4900;-38.0800;-4.4100
1250.3760;-42.1300;-37.9500;-4.1800
1250.5750;-41.8000;-37.8100;-3.9900
1250.7740;-41.5000;-37.6800;-3.8200
1250.9740;-41.2300;-37.5700;-3.6600
1251.1730;-41.0000;-37.4300;-3.5700
1251.3720;-40.7700;-37.3000;-3.4700
1251.5710;-40.6100;-37.1800;-3.4300
1251.7700;-40.4400;-37.0400;-3.4000
1251.9690;-40.3100;-36.9200;-3.3900
1252.1680;-40.2200;-36.7700;-3.4500
1252.3670;-40.1500;-36.6500;-3.5000
1252.5660;-40.1100;-36.5200;-3.5900
1252.7660;-40.0900;-36.3800;-3.7100
1252.9650;-40.1200;-36.2600;-3.8600
1253.1640;-40.1700;-36.1100;-4.0600
1253.3630;-40.2400;-35.9700;-4.2700
1253.5620;-40.3500;-35.8000;-4.5500
1253.7610;-40.4700;-35.6900;-4.7800
1253.9600;-40.6200;-35.5400;-5.0800
1254.1590;-40.7900;-35.4000;-5.3900
1254.3580;-40.9600;-35.2500;-5.7100
1254.5580;-41.1600;-35.1100;-6.0500
1254.7570;-41.3200;-34.9700;-6.3500
1254.9560;-41.4600;-34.8100;-6.6500
1255.1550;-41.5900;-34.6700;-6.9200
1255.3540;-41.6400;-34.5400;-7.1000
1255.5530;-41.6400;-34.4000;-7.2400
1255.7520;-41.5400;-34.2700;-7.2700
1255.9510;-41.3600;-34.1200;-7.2400
1256.1500;-41.1000;-34.0000;-7.1000
1256.3500;-40.7500;-33.8600;-6.8900
1256.5490;-40.3700;-33.7300;-6.6400
1256.7480;-39.9000;-33.6200;-6.2800
1256.9470;-39.4100;-33.4700;-5.9400
1257.1460;-38.9000;-33.3500;-5.5500
1257.3450;-38.3800;-33.2300;-5.1500
1257.5440;-37.8800;-33.1000;-4.7800
1257.7430;-37.3700;-32.9900;-4.3800
1257.9430;-36.8900;-32.8400;-4.0500
1258.1420;-36.4300;-32.7300;-3.7000
1258.3410;-35.9900;-32.5900;-3.4000
1258.5400;-35.5100;-32.4700;-3.0400
1258.7390;-35.1900;-32.3500;-2.8400
1258.9380;-34.8400;-32.2000;-2.6400
1259.1370;-34.5100;-32.0800;-2.4300
1259.3360;-34.2200;-31.9300;-2.2900
1259.5350;-33.9600;-31.8000;-2.1600
1259.7350;-33.7200;-31.6700;-2.0500
1259.9340;-33.5200;-31.5200;-2.0000
1260.1330;-33.3500;-31.4000;-1.9500
1260.3320;-33.2200;-31.2600;-1.9600
1260.5310;-33.1200;-31.1300;-1.9900
1260.7300;-33.0500;-31.0000;-2.0500
1260.9290;-33.0200;-30.8600;-2.1600
1261.1280;-33.0200;-30.7300;-2.2900
1261.3270;-33.0700;-30.5900;-2.4800
1261.5270;-33.1500;-30.4700;-2.6800
1261.7260;-33.2600;-30.3500;-2.9100
1261.9250;-33.4300;-30.2100;-3.2200
1262.1240;-33.6300;-30.0900;-3.5400
1262.3230;-33.8800;-29.9600;-3.9200
1262.5220;-34.1700;-29.8500;-4.3200
1262.7210;-34.5000;-29.7300;-4.7700
1262.9200;-34.8900;-29.6000;-5.2900
1263.1200;-35.3000;-29.4800;-5.8200
1263.3190;-35.7700;-29.3500;-6.4200
1263.5180;-36.2700;-29.2300;-7.0400
1263.7170;-36.7800;-29.1200;-7.6600
1263.9160;-37.3100;-28.9900;-8.3200
1264.1150;-37.7800;-28.8700;-8.9100
1264.3140;-38.2700;-28.7400;-9.5300
1264.5130;-38.4700;-28.6200;-9.8500
1264.7120;-38.5500;-28.5000;-10.0500
1264.9120;-38.3800;-28.3600;-10.0200
1265.1110;-38.0200;-28.2400;-9.7800
1265.3100;-37.4700;-28.1000;-9.3700
1265.5090;-36.8000;-27.9900;-8.8100
1265.7080;-36.0800;-27.8600;-8.2200
1265.9070;-35.1800;-27.7300;-7.4500
1266.1060;-34.5700;-27.6100;-6.9600
1266.3050;-33.8500;-27.4800;-6.3700
1266.5040;-33.1900;-27.3700;-5.8200
1266.7040;-32.5500;-27.2500;-5.3000
1266.9030;-31.9600;-27.1200;-4.8400
1267.1020;-31.4400;-27.0200;-4.4200
1267.3010;-30.9400;-26.8900;-4.0500
1267.5000;-30.5200;-26.7900;-3.7300
1267.6990;-30.1100;-26.6800;-3.4300
1267.8980;-29.7600;-26.5600;-3.2000
1268.0970;-29.4700;-26.4700;-3.0000
1268.2970;-29.1800;-26.3400;-2.8400
1268.4960;-28.9600;-26.2500;-2.7100
1268.6950;-28.7600;-26.1300;-2.6300
1268.8940;-28.6000;-26.0100;-2.5900
1269.0930;-28.4800;-25.9100;-2.5700
1269.2920;-28.3900;-25.8000;-2.5900
1269.4910;-28.3500;-25.7100;-2.6400
1269.6900;-28.3300;-25.5900;-2.7400
1269.8890;-28.3500;-25.4900;-2.8600
1270.0890;-28.4200;-25.3700;-3.0500
1270.2880;-28.5100;-25.2600;-3.2500
1270.4870;-28.6600;-25.1700;-3.4900
1270.6860;-28.8400;-25.0500;-3.7900
1270.8850;-29.0500;-24.9400;-4.1100
1271.0840;-29.3200;-24.8200;-4.5000
1271.2830;-29.6200;-24.7200;-4.9000
1271.4820;-29.9600;-24.6200;-5.3400
1271.6810;-30.3300;-24.5000;-5.8300
1271.8810;-30.7300;-24.4100;-6.3200
1272.0800;-31.1600;-24.2900;-6.8700
1272.2790;-31.5900;-24.1900;-7.4000
1272.4780;-32.0100;-24.0900;-7.9200
1272.6770;-32.3700;-23.9900;-8.3800
1272.8760;-32.6800;-23.9000;-8.7800
1273.0750;-32.8700;-23.7900;-9.0800
1273.2740;-32.9200;-23.7000;-9.2200
1273.4740;-32.8400;-23.6100;-9.2300
1273.6730;-32.5800;-23.5100;-9.0700
1273.8720;-32.2000;-23.4200;-8.7800
1274.0710;-31.7200;-23.3200;-8.4000
1274.2700;-31.1700;-23.2300;-7.9400
1274.4690;-30.6100;-23.1500;-7.4600
1274.6680;-30.0100;-23.0500;-6.9600
1274.8670;-29.4400;-22.9700;-6.4700
1275.0660;-28.8800;-22.8700;-6.0100
1275.2660;-28.3500;-22.7700;-5.5800
1275.4650;-27.8600;-22.6800;-5.1800
1275.6640;-27.4000;-22.5800;-4.8200
1275.8630;-26.9800;-22.5000;-4.4800
1276.0620;-26.5900;-22.3900;-4.2000
1276.2610;-26.2500;-22.3000;-3.9500
1276.4600;-25.9100;-22.2100;-3.7000
1276.6590;-25.6800;-22.1000;-3.5800
1276.8580;-25.4800;-22.0200;-3.4600
1277.0580;-25.2900;-21.9200;-3.3700
1277.2570;-25.1500;-21.8300;-3.3200
1277.4560;-25.0300;-21.7400;-3.2900
1277.6550;-24.9700;-21.6500;-3.3200
1277.8540;-24.9400;-21.5700;-3.3700
1278.0530;-24.9300;-21.4700;-3.4600
1278.2520;-24.9800;-21.3900;-3.5900
1278.4510;-25.0300;-21.3000;-3.7300
1278.6500;-25.1400;-21.2200;-3.9200
1278.8500;-25.2700;-21.1400;-4.1300
1279.0490;-25.4300;-21.0500;-4.3800
1279.2480;-25.6300;-20.9800;-4.6500
1279.4470;-25.8200;-20.8900;-4.9300
1279.6460;-26.0400;-20.8100;-5.2300
1279.8450;-26.2700;-20.7400;-5.5300
1280.0440;-26.5000;-20.6500;-5.8500
1280.2430;-26.7200;-20.5900;-6.1300
1280.4430;-26.8800;-20.5000;-6.3800
1280.6420;-27.0100;-20.4300;-6.5800
1280.8410;-27.0600;-20.3500;-6.7100
1281.0400;-27.0300;-20.2700;-6.7600
1281.2390;-26.9100;-20.2000;-6.7100
1281.4380;-26.6800;-20.1200;-6.5600
1281.6370;-26.3800;-20.0500;-6.3300
1281.8360;-25.9800;-19.9700;-6.0100
1282.0350;-25.5300;-19.8900;-5.6400
1282.2350;-25.0600;-19.8300;-5.2300
1282.4340;-24.5400;-19.7400;-4.8000
1282.6330;-24.0500;-19.6800;-4.3700
1282.8320;-23.5200;-19.6100;-3.9100
1283.0310;-23.0200;-19.5300;-3.4900
1283.2300;-22.5500;-19.4700;-3.0800
1283.4290;-22.1000;-19.4000;-2.7000
1283.6280;-21.6700;-19.3300;-2.3400
1283.8270;-21.2700;-19.2600;-2.0100
1284.0270;-20.9000;-19.1900;-1.7100
1284.2260;-20.5700;-19.1300;-1.4400
1284.4250;-20.2700;-19.0600;-1.2100
1284.6240;-20.0100;-19.0000;-1.0100
1284.8230;-19.7600;-18.9300;-0.8300
1285.0220;-19.5500;-18.8600;-0.6900
1285.2210;-19.3800;-18.8000;-0.5800
1285.4200;-19.2400;-18.7300;-0.5100
1285.6200;-19.1500;-18.6700;-0.4800
1285.8190;-19.0700;-18.5900;-0.4800
1286.0180;-19.0400;-18.5300;-0.5100
1286.2170;-19.0400;-18.4700;-0.5700
1286.4160;-19.0800;-18.3900;-0.6900
1286.6150;-19.1900;-18.3400;-0.8500
1286.8140;-19.3000;-18.2700;-1.0300
1287.0130;-19.4700;-18.2000;-1.2700
1287.2120;-19.6800;-18.1400;-1.5400
1287.4120;-19.9500;-18.0700;-1.8800
1287.6110;-20.2800;-18.0200;-2.2600
1287.8100;-20.6400;-17.9400;-2.7000
1288.0090;-21.0800;-17.8900;-3.1900
1288.2080;-21.5800;-17.8200;-3.7600
1288.4070;-22.1600;-17.7600;-4.4000
1288.6060;-22.8300;-17.7100;-5.1200
1288.8050;-23.5800;-17.6500;-5.9300
1289.0040;-24.4600;-17.6000;-6.8600
1289.2040;-25.4300;-17.5300;-7.9000
1289.4030;-26.5200;-17.4800;-9.0400
1289.6020;-27.7300;-17.4400;-10.2900
1289.8010;-29.2100;-17.3800;-11.8300
1290.0000;-30.0800;-17.3400;-12.7400
1290.1990;-30.7300;-17.2800;-13.4500
1290.3980;-30.6900;-17.2300;-13.4600
1290.5970;-29.9100;-17.2000;-12.7100
1290.7970;-28.6800;-17.1400;-11.5400
1290.9960;-27.3200;-17.1000;-10.2200
1291.1950;-25.8000;-17.0400;-8.7600
1291.3940;-24.8100;-17.0000;-7.8100
1291.5930;-23.7100;-16.9400;-6.7700
1291.7920;-22.7500;-16.9000;-5.8500
1291.9910;-21.8800;-16.8600;-5.0200
1292.1900;-21.1100;-16.8000;-4.3100
1292.3890;-20.4300;-16.7600;-3.6700
1292.5890;-19.8100;-16.7100;-3.1000
1292.7880;-19.2800;-16.6600;-2.6200
1292.9870;-18.7900;-16.6300;-2.1600
1293.1860;-18.3800;-16.5700;-1.8100
1293.3850;-18.0200;-16.5400;-1.4800
1293.5840;-17.6900;-16.4800;-1.2100
1293.7830;-17.4400;-16.4400;-1.0000
1293.9820;-17.2200;-16.4100;-0.8100
1294.1810;-17.0600;-16.3600;-0.7000
1294.3810;-16.9200;-16.3400;-0.5800
1294.5800;-16.8300;-16.2700;-0.5600
1294.7790;-16.7900;-16.2400;-0.5500
1294.9780;-16.7900;-16.2000;-0.5900
1295.1770;-16.8400;-16.1600;-0.6800
1295.3760;-16.9200;-16.1300;-0.7900
1295.5750;-17.0300;-16.0800;-0.9500
1295.7740;-17.2100;-16.0600;-1.1500
1295.9740;-17.4100;-16.0000;-1.4100
1296.1730;-17.6900;-15.9700;-1.7200
1296.3720;-18.0000;-15.9300;-2.0700
1296.5710;-18.3700;-15.8900;-2.4800
1296.7700;-18.8100;-15.8700;-2.9400
1296.9690;-19.3100;-15.8200;-3.4900
1297.1680;-19.9000;-15.8000;-4.1000
1297.3670;-20.5500;-15.7500;-4.8000
1297.5660;-21.3000;-15.7200;-5.5800
1297.7660;-22.1700;-15.6900;-6.4800
1297.9650;-23.1700;-15.6600;-7.5100
1298.1640;-24.3400;-15.6400;-8.7000
1298.3630;-25.6600;-15.6000;-10.0600
1298.5620;-27.1900;-15.5600;-11.6300
1298.7610;-29.2300;-15.5400;-13.6900
1298.9600;-30.5600;-15.5100;-15.0500
1299.1590;-31.6200;-15.5000;-16.1200
1299.3580;-31.4600;-15.4600;-16.0000
1299.5580;-30.1600;-15.4300;-14.7300
1299.7570;-28.4200;-15.4000;-13.0200
1299.9560;-26.7300;-15.3800;-11.3500
1300.1550;-24.9600;-15.3700;-9.5900
1300.3540;-23.8800;-15.3300;-8.5500
1300.5530;-22.7200;-15.3100;-7.4100
1300.7520;-21.7100;-15.2800;-6.4300
1300.9510;-20.8400;-15.2600;-5.5800
1301.1500;-20.0700;-15.2500;-4.8200
1301.3500;-19.3900;-15.2200;-4.1700
1301.5490;-18.8000;-15.2200;-3.5800
1301.7480;-18.2700;-15.1900;-3.0800
1301.9470;-17.8200;-15.1700;-2.6500
1302.1460;-17.4200;-15.1700;-2.2500
1302.3450;-17.0800;-15.1500;-1.9300
1302.5440;-16.8000;-15.1500;-1.6500
1302.7430;-16.5500;-15.1200;-1.4300
1302.9430;-16.3600;-15.1000;-1.2600
1303.1420;-16.2100;-15.1000;-1.1100
1303.3410;-16.1000;-15.0800;-1.0200
1303.5400;-16.0500;-15.0900;-0.9600
1303.7390;-16.0300;-15.0700;-0.9600
1303.9380;-16.0300;-15.0600;-0.9700
1304.1370;-16.1000;-15.0600;-1.0400
1304.3360;-16.2100;-15.0500;-1.1600
1304.5350;-16.3600;-15.0600;-1.3000
1304.7350;-16.5500;-15.0600;-1.4900
1304.9340;-16.7600;-15.0600;-1.7000
1305.1330;-17.0500;-15.0600;-1.9900
1305.3320;-17.3700;-15.0600;-2.3100
1305.5310;-17.7500;-15.0800;-2.6700
1305.7300;-18.1900;-15.0800;-3.1100
1305.9290;-18.7700;-15.0900;-3.6800
1306.1280;-19.2400;-15.1000;-4.1400
1306.3270;-19.8400;-15.1100;-4.7300
1306.5270;-20.5300;-15.1400;-5.3900
1306.7260;-21.3000;-15.1400;-6.1600
1306.9250;-22.1100;-15.1700;-6.9400
1307.1240;-23.0100;-15.1700;-7.8400
1307.3230;-23.9300;-15.1900;-8.7400
1307.5220;-24.8500;-15.2100;-9.6400
1307.7210;-25.6700;-15.2300;-10.4400
1307.9200;-26.2500;-15.2600;-10.9900
1308.1200;-26.5000;-15.2700;-11.2300
1308.3190;-26.3100;-15.2900;-11.0200
1308.5180;-25.7800;-15.3200;-10.4600
1308.7170;-25.0100;-15.3400;-9.6700
1308.9160;-24.1300;-15.3700;-8.7600
1309.1150;-23.2700;-15.3800;-7.8900
1309.3140;-22.4100;-15.4100;-7.0000
1309.5130;-21.6300;-15.4300;-6.2000
1309.7120;-20.9200;-15.4500;-5.4700
1309.9120;-20.2700;-15.4800;-4.7900
