Wavelength;Intensity_Meas;Intensity_Ref;Difference_dB
1200.0000;-60.6200;-55.6000;-5.0200
1200.1990;-60.5500;-55.5600;-4.9900
1200.3980;-60.5000;-55.5400;-4.9600
1200.5970;-60.5000;-55.5000;-5.0000
1200.7970;-60.4400;-55.4800;-4.9600
1200.9960;-60.3700;-55.4400;-4.9300
1201.1950;-60.3100;-55.3900;-4.9200
1201.3940;-60.2800;-55.3500;-4.9300
1201.5930;-60.2700;-55.3200;-4.9500
1201.7920;-60.1800;-55.2800;-4.9000
1201.9910;-60.1200;-55.2100;-4.9100
1202.1900;-60.0900;-55.1600;-4.9300
1202.3890;-60.0500;-55.1100;-4.9400
1202.5890;-59.9900;-55.0800;-4.9100
1202.7880;-59.8700;-55.0100;-4.8600
1202.9870;-59.8500;-54.9400;-4.9100
1203.1860;-59.8300;-54.8900;-4.9400
1203.3850;-59.7700;-54.8700;-4.9000
1203.5840;-59.7000;-54.8100;-4.8900
1203.7830;-59.6300;-54.7500;-4.8800
1203.9820;-59.6600;-54.7200;-4.9400
1204.1810;-59.6400;-54.6800;-4.9600
1204.3810;-59.5700;-54.6400;-4.9300
1204.5800;-59.5400;-54.6000;-4.9400
1204.7790;-59.5700;-54.5800;-4.9900
1204.9780;-59.6100;-54.5500;-5.0600
1205.1770;-59.5900;-54.5100;-5.0800
1205.3760;-59.5600;-54.4800;-5.0800
1205.5750;-59.6300;-54.4600;-5.1700
1205.7740;-59.6700;-54.4400;-5.2300
1205.9740;-59.6900;-54.4400;-5.2500
1206.1730;-59.6800;-54.4100;-5.2700
1206.3720;-59.7000;-54.3800;-5.3200
1206.5710;-59.7700;-54.3500;-5.4200
1206.7700;-59.7700;-54.3400;-5.4300
1206.9690;-59.7100;-54.3100;-5.4000
1207.1680;-59.6900;-54.2700;-5.4200
1207.3670;-59.7200;-54.2400;-5.4800
1207.5660;-59.7100;-54.2200;-5.4900
1207.7660;-59.5800;-54.1900;-5.3900
1207.9650;-59.5200;-54.1500;-5.3700
1208.1640;-59.5600;-54.0900;-5.4700
1208.3630;-59.5400;-54.0700;-5.4700
1208.5620;-59.4500;-54.0300;-5.4200
1208.7610;-59.3700;-53.9700;-5.4000
1208.9600;-59.3400;-53.9200;-5.4200
1209.1590;-59.3000;-53.8600;-5.4400
1209.3580;-59.2000;-53.8200;-5.3800
1209.5580;-59.0900;-53.7600;-5.3300
1209.7570;-59.0500;-53.7100;-5.3400
1209.9560;-59.0200;-53.6500;-5.3700
1210.1550;-58.9400;-53.6100;-5.3300
1210.3540;-58.7900;-53.5700;-5.2200
1210.5530;-58.7200;-53.4900;-5.2300
1210.7520;-58.7100;-53.4400;-5.2700
1210.9510;-58.6200;-53.4100;-5.2100
1211.1500;-58.4800;-53.3500;-5.1300
1211.3500;-58.4100;-53.3100;-5.1000
1211.5490;-58.4300;-53.2600;-5.1700
1211.7480;-58.3700;-53.2300;-5.1400
1211.9470;-58.2500;-53.2100;-5.0400
1212.1460;-58.2100;-53.1600;-5.0500
1212.3450;-58.2400;-53.1200;-5.1200
1212.5440;-58.2500;-53.1000;-5.1500
1212.7430;-58.1700;-53.0700;-5.1000
1212.9430;-58.1400;-53.0300;-5.1100
1213.1420;-58.1900;-52.9900;-5.2000
1213.3410;-58.2200;-52.9800;-5.2400
1213.5400;-58.2000;-52.9500;-5.2500
1213.7390;-58.1700;-52.9000;-5.2700
1213.9380;-58.1900;-52.8700;-5.3200
1214.1370;-58.2400;-52.8300;-5.4100
1214.3360;-58.2000;-52.8000;-5.4000
1214.5350;-58.1600;-52.7600;-5.4000
1214.7350;-58.1800;-52.7100;-5.4700
1214.9340;-58.2200;-52.6600;-5.5600
1215.1330;-58.1700;-52.6200;-5.5500
1215.3320;-58.0900;-52.5800;-5.5100
1215.5310;-58.1000;-52.5100;-5.5900
1215.7300;-58.1000;-52.4500;-5.6500
1215.9290;-58.0400;-52.4200;-5.6200
1216.1280;-57.9500;-52.3500;-5.6000
1216.3270;-57.8900;-52.2900;-5.6000
1216.5270;-57.8800;-52.2300;-5.6500
1216.7260;-57.8000;-52.1700;-5.6300
1216.9250;-57.6600;-52.1200;-5.5400
1217.1240;-57.5700;-52.0500;-5.5200
1217.3230;-57.5200;-52.0000;-5.5200
1217.5220;-57.4300;-51.9400;-5.4900
1217.7210;-57.2500;-51.8900;-5.3600
1217.9200;-57.1200;-51.8400;-5.2800
1218.1200;-57.0400;-51.7700;-5.2700
1218.3190;-56.9300;-51.7400;-5.1900
1218.5180;-56.7800;-51.6900;-5.0900
1218.7170;-56.6200;-51.6500;-4.9700
1218.9160;-56.5300;-51.6100;-4.9200
1219.1150;-56.4600;-51.5600;-4.9000
1219.3140;-56.3000;-51.5400;-4.7600
1219.5130;-56.1900;-51.5000;-4.6900
1219.7120;-56.1300;-51.4500;-4.6800
1219.9120;-56.0800;-51.4200;-4.6600
1220.1110;-55.9900;-51.3900;-4.6000
1220.3100;-55.8700;-51.3500;-4.5200
1220.5090;-55.8700;-51.3000;-4.5700
1220.7080;-55.8500;-51.2600;-4.5900
1220.9070;-55.8100;-51.2200;-4.5900
1221.1060;-55.7400;-51.1600;-4.5800
1221.3050;-55.7500;-51.1200;-4.6300
1221.5040;-55.7600;-51.0400;-4.7200
1221.7040;-55.7300;-50.9900;-4.7400
1221.9030;-55.7000;-50.9400;-4.7600
1222.1020;-55.7000;-50.8600;-4.8400
1222.3010;-55.7400;-50.8100;-4.9300
1222.5000;-55.7200;-50.7300;-4.9900
1222.6990;-55.7000;-50.6700;-5.0300
1222.8980;-55.7400;-50.5900;-5.1500
1223.0970;-55.7900;-50.5100;-5.2800
1223.2970;-55.7900;-50.4600;-5.3300
1223.4960;-55.7900;-50.3700;-5.4200
1223.6950;-55.8400;-50.3000;-5.5400
1223.8940;-55.9100;-50.2400;-5.6700
1224.0930;-55.9100;-50.1600;-5.7500
1224.2920;-55.9100;-50.1100;-5.8000
1224.4910;-55.9500;-50.0200;-5.9300
1224.6900;-55.9800;-49.9600;-6.0200
1224.8890;-55.9700;-49.9000;-6.0700
1225.0890;-55.9300;-49.8400;-6.0900
1225.2880;-55.9100;-49.7800;-6.1300
1225.4870;-55.8900;-49.7100;-6.1800
1225.6860;-55.8100;-49.6600;-6.1500
1225.8850;-55.7100;-49.6200;-6.0900
1226.0840;-55.6000;-49.5500;-6.0500
1226.2830;-55.5100;-49.5100;-6.0000
1226.4820;-55.3500;-49.4400;-5.9100
1226.6810;-55.1700;-49.4000;-5.7700
1226.8810;-55.0400;-49.3500;-5.6900
1227.0800;-54.9000;-49.2800;-5.6200
1227.2790;-54.7200;-49.2400;-5.4800
1227.4780;-54.5300;-49.1700;-5.3600
1227.6770;-54.3700;-49.1100;-5.2600
1227.8760;-54.2400;-49.0500;-5.1900
1228.0750;-54.0700;-48.9800;-5.0900
1228.2740;-53.8900;-48.9200;-4.9700
1228.4740;-53.7600;-48.8400;-4.9200
1228.6730;-53.6400;-48.7700;-4.8700
1228.8720;-53.5000;-48.7000;-4.8000
1229.0710;-53.3500;-48.6200;-4.7300
1229.2700;-53.2500;-48.5500;-4.7000
1229.4690;-53.1700;-48.4500;-4.7200
1229.6680;-53.0500;-48.3800;-4.6700
1229.8670;-52.9400;-48.3000;-4.6400
1230.0660;-52.8900;-48.2100;-4.6800
1230.2660;-52.8200;-48.1300;-4.6900
1230.4650;-52.7500;-48.0400;-4.7100
1230.6640;-52.6800;-47.9600;-4.7200
1230.8630;-52.6900;-47.8900;-4.8000
1231.0620;-52.6900;-47.8100;-4.8800
1231.2610;-52.6800;-47.7600;-4.9200
1231.4600;-52.6900;-47.6800;-5.0100
1231.6590;-52.7400;-47.6200;-5.1200
1231.8580;-52.7700;-47.5500;-5.2200
1232.0580;-52.8000;-47.5000;-5.3000
1232.2570;-52.8300;-47.4400;-5.3900
1232.4560;-52.9200;-47.3700;-5.5500
1232.6550;-52.9500;-47.3200;-5.6300
1232.8540;-52.9600;-47.2500;-5.7100
1233.0530;-53.0100;-47.2000;-5.8100
1233.2520;-53.0400;-47.1500;-5.8900
1233.4510;-53.0500;-47.0700;-5.9800
1233.6500;-53.0100;-47.0300;-5.9800
1233.8500;-52.9800;-46.9500;-6.0300
1234.0490;-52.9600;-46.8900;-6.0700
1234.2480;-52.8800;-46.8300;-6.0500
1234.4470;-52.7900;-46.7500;-6.0400
1234.6460;-52.7000;-46.6900;-6.0100
1234.8450;-52.6200;-46.6100;-6.0100
1235.0440;-52.4800;-46.5300;-5.9500
1235.2430;-52.3400;-46.4600;-5.8800
1235.4430;-52.2300;-46.3600;-5.8700
1235.6420;-52.1000;-46.2900;-5.8100
1235.8410;-51.9300;-46.1900;-5.7400
1236.0400;-51.7800;-46.1100;-5.6700
1236.2390;-51.6500;-46.0200;-5.6300
1236.4380;-51.5200;-45.9100;-5.6100
1236.6370;-51.3600;-45.8300;-5.5300
1236.8360;-51.2200;-45.7400;-5.4800
1237.0350;-51.1100;-45.6700;-5.4400
1237.2350;-50.9900;-45.5700;-5.4200
1237.4340;-50.8600;-45.4700;-5.3900
1237.6330;-50.7600;-45.3900;-5.3700
1237.8320;-50.7000;-45.3100;-5.3900
1238.0310;-50.6000;-45.2400;-5.3600
1238.2300;-50.5200;-45.1500;-5.3700
1238.4290;-50.4900;-45.0700;-5.4200
1238.6280;-50.4500;-45.0000;-5.4500
1238.8270;-50.4000;-44.9100;-5.4900
1239.0270;-50.3700;-44.8500;-5.5200
1239.2260;-50.3500;-44.7500;-5.6000
1239.4250;-50.3500;-44.6700;-5.6800
1239.6240;-50.3100;-44.6000;-5.7100
1239.8230;-50.2800;-44.5100;-5.7700
1240.0220;-50.2500;-44.4400;-5.8100
1240.2210;-50.2000;-44.3400;-5.8600
1240.4200;-50.1200;-44.2500;-5.8700
1240.6200;-50.0300;-44.1600;-5.8700
1240.8190;-49.9400;-44.0600;-5.8800
1241.0180;-49.7900;-43.9600;-5.8300
1241.2170;-49.6300;-43.8500;-5.7800
1241.4160;-49.4800;-43.7400;-5.7400
1241.6150;-49.2900;-43.6200;-5.6700
1241.8140;-49.1000;-43.5000;-5.6000
1242.0130;-48.8800;-43.4000;-5.4800
1242.2120;-48.6800;-43.2700;-5.4100
1242.4120;-48.5000;-43.1500;-5.3500
1242.6110;-48.2600;-43.0300;-5.2300
1242.8100;-48.0800;-42.9000;-5.1800
1243.0090;-47.8800;-42.7800;-5.1000
1243.2080;-47.7000;-42.6500;-5.0500
1243.4070;-47.5200;-42.5300;-4.9900
1243.6060;-47.3600;-42.4000;-4.9600
1243.8050;-47.2300;-42.2800;-4.9500
1244.0040;-47.0800;-42.1600;-4.9200
1244.2040;-46.9700;-42.0300;-4.9400
1244.4030;-46.8900;-41.9100;-4.9800
1244.6020;-46.8100;-41.7900;-5.0200
1244.8010;-46.7600;-41.6700;-5.0900
1245.0000;-46.7200;-41.5700;-5.1500
1245.1990;-46.7200;-41.4400;-5.2800
1245.3980;-46.7400;-41.3300;-5.4100
1245.5970;-46.7600;-41.2000;-5.5600
1245.7970;-46.8400;-41.0800;-5.7600
1245.9960;-46.9100;-40.9700;-5.9400
1246.1950;-47.0100;-40.8400;-6.1700
1246.3940;-47.1500;-40.7200;-6.4300
1246.5930;-47.2900;-40.5800;-6.7100
1246.7920;-47.4600;-40.4600;-7.0000
1246.9910;-47.6000;-40.3300;-7.2700
1247.1900;-47.7700;-40.1900;-7.5800
1247.3890;-47.9200;-40.0500;-7.8700
1247.5890;-48.0300;-39.9100;-8.1200
1247.7880;-48.1200;-39.7700;-8.3500
1247.9870;-48.1200;-39.6400;-8.4800
1248.1860;-48.0700;-39.4900;-8.5800
1248.3850;-47.9400;-39.3500;-8.5900
1248.5840;-47.7200;-39.2000;-8.5200
1248.7830;-47.4500;-39.0500;-8.4000
1248.9820;-47.0800;-38.9300;-8.1500
1249.1810;-46.6700;-38.7700;-7.9000
1249.3810;-46.2300;-38.6400;-7.5900
1249.5800;-45.6700;-38.5000;-7.1700
1249.7790;-45.2700;-38.3600;-6.9100
1249.9780;-44.7800;-38.2200;-6.5600
1250.1770;-44.3200;-38.0800;-6.2400
1250.3760;-43.8400;-37.9500;-5.8900
1250.5750;-43.3700;-37.8100;-5.5600
1250.7740;-42.9400;-37.6800;-5.2600
1250.9740;-42.5300;-37.5700;-4.9600
1251.1730;-42.1400;-37.4300;-4.7100
1251.3720;-41.7600;-37.3000;-4.4600
1251.5710;-41.4300;-37.1800;-4.2500
1251.7700;-41.1200;-37.0400;-4.0800
1251.9690;-40.8300;-36.9200;-3.9100
1252.1680;-40.5900;-36.7700;-3.8200
1252.3670;-40.3600;-36.6500;-3.7100
1252.5660;-40.1700;-36.5200;-3.6500
1252.7660;-40.0100;-36.3800;-3.6300
1252.9650;-39.8900;-36.2600;-3.6300
1253.1640;-39.8200;-36.1100;-3.7100
1253.3630;-39.7500;-35.9700;-3.7800
1253.5620;-39.7400;-35.8000;-3.9400
1253.7610;-39.7600;-35.6900;-4.0700
1253.9600;-39.8200;-35.5400;-4.2800
1254.1590;-39.9200;-35.4000;-4.5200
1254.3580;-40.0400;-35.2500;-4.7900
1254.5580;-40.2100;-35.1100;-5.1000
1254.7570;-40.3900;-34.9700;-5.4200
1254.9560;-40.6100;-34.8100;-5.8000
1255.1550;-40.8700;-34.6700;-6.2000
1255.3540;-41.1100;-34.5400;-6.5700
1255.5530;-41.3800;-34.4000;-6.9800
1255.7520;-41.6200;-34.2700;-7.3500
1255.9510;-41.8300;-34.1200;-7.7100
1256.1500;-42.0100;-34.0000;-8.0100
1256.3500;-42.0800;-33.8600;-8.2200
1256.5490;-42.0800;-33.7300;-8.3500
1256.7480;-41.9500;-33.6200;-8.3300
1256.9470;-41.7000;-33.4700;-8.2300
1257.1460;-41.3500;-33.3500;-8.0000
1257.3450;-40.8800;-33.2300;-7.6500
1257.5440;-40.3800;-33.1000;-7.2800
1257.7430;-39.7900;-32.9900;-6.8000
1257.9430;-39.1800;-32.8400;-6.3400
1258.1420;-38.5800;-32.7300;-5.8500
1258.3410;-37.9700;-32.5900;-5.3800
1258.5400;-37.3900;-32.4700;-4.9200
1258.7390;-36.8000;-32.3500;-4.4500
1258.9380;-36.2500;-32.2000;-4.0500
1259.1370;-35.6400;-32.0800;-3.5600
1259.3360;-35.2600;-31.9300;-3.3300
1259.5350;-34.8200;-31.8000;-3.0200
1259.7350;-34.4000;-31.6700;-2.7300
1259.9340;-34.0300;-31.5200;-2.5100
1260.1330;-33.6800;-31.4000;-2.2800
1260.3320;-33.3700;-31.2600;-2.1100
1260.5310;-33.1000;-31.1300;-1.9700
1260.7300;-32.8500;-31.0000;-1.8500
1260.9290;-32.6500;-30.8600;-1.7900
1261.1280;-32.4600;-30.7300;-1.7300
1261.3270;-32.3100;-30.5900;-1.7200
1261.5270;-32.2100;-30.4700;-1.7400
1261.7260;-32.1200;-30.3500;-1.7700
1261.9250;-32.0800;-30.2100;-1.8700
1262.1240;-32.0500;-30.0900;-1.9600
1262.3230;-32.0700;-29.9600;-2.1100
1262.5220;-32.1300;-29.8500;-2.2800
1262.7210;-32.2100;-29.7300;-2.4800
1262.9200;-32.3400;-29.6000;-2.7400
1263.1200;-32.4900;-29.4800;-3.0100
1263.3190;-32.6800;-29.3500;-3.3300
1263.5180;-32.9300;-29.2300;-3.7000
1263.7170;-33.1900;-29.1200;-4.0700
1263.9160;-33.5100;-28.9900;-4.5200
1264.1150;-33.8500;-28.8700;-4.9800
1264.3140;-34.2300;-28.7400;-5.4900
1264.5130;-34.6500;-28.6200;-6.0300
1264.7120;-35.0800;-28.5000;-6.5800
1264.9120;-35.5200;-28.3600;-7.1600
1265.1110;-35.9400;-28.2400;-7.7000
1265.3100;-36.3200;-28.1000;-8.2200
1265.5090;-36.6500;-27.9900;-8.6600
1265.7080;-36.8500;-27.8600;-8.9900
1265.9070;-36.9500;-27.7300;-9.2200
1266.1060;-36.8800;-27.6100;-9.2700
1266.3050;-36.6700;-27.4800;-9.1900
1266.5040;-36.3400;-27.3700;-8.9700
1266.7040;-35.9100;-27.2500;-8.6600
1266.9030;-35.4300;-27.1200;-8.3100
1267.1020;-34.8900;-27.0200;-7.8700
1267.3010;-34.3500;-26.8900;-7.4600
1267.5000;-33.8300;-26.7900;-7.0400
1267.6990;-33.3100;-26.6800;-6.6300
1267.8980;-32.8300;-26.5600;-6.2700
1268.0970;-32.3700;-26.4700;-5.9000
1268.2970;-31.9500;-26.3400;-5.6100
1268.4960;-31.5600;-26.2500;-5.3100
1268.6950;-31.2000;-26.1300;-5.0700
1268.8940;-30.8900;-26.0100;-4.8800
1269.0930;-30.6000;-25.9100;-4.6900
1269.2920;-30.3700;-25.8000;-4.5700
1269.4910;-30.1800;-25.7100;-4.4700
1269.6900;-30.0200;-25.5900;-4.4300
1269.8890;-29.9200;-25.4900;-4.4300
1270.0890;-29.8400;-25.3700;-4.4700
1270.2880;-29.8200;-25.2600;-4.5600
1270.4870;-29.8500;-25.1700;-4.6800
1270.6860;-29.9100;-25.0500;-4.8600
1270.8850;-30.0500;-24.9400;-5.1100
1271.0840;-30.2100;-24.8200;-5.3900
1271.2830;-30.4400;-24.7200;-5.7200
1271.4820;-30.7200;-24.6200;-6.1000
1271.6810;-31.0500;-24.5000;-6.5500
1271.8810;-31.4600;-24.4100;-7.0500
1272.0800;-31.9200;-24.2900;-7.6300
1272.2790;-32.4600;-24.1900;-8.2700
1272.4780;-33.0400;-24.0900;-8.9500
1272.6770;-33.7000;-23.9900;-9.7100
1272.8760;-34.4200;-23.9000;-10.5200
1273.0750;-35.1900;-23.7900;-11.4000
1273.2740;-35.9800;-23.7000;-12.2800
1273.4740;-36.7100;-23.6100;-13.1000
1273.6730;-37.3400;-23.5100;-13.8300
1273.8720;-37.7100;-23.4200;-14.2900
1274.0710;-37.7500;-23.3200;-14.4300
1274.2700;-37.4200;-23.2300;-14.1900
1274.4690;-36.7700;-23.1500;-13.6200
1274.6680;-35.9400;-23.0500;-12.8900
1274.8670;-35.0100;-22.9700;-12.0400
1275.0660;-34.0800;-22.8700;-11.2100
1275.2660;-33.2000;-22.7700;-10.4300
1275.4650;-32.3600;-22.6800;-9.6800
1275.6640;-31.6000;-22.5800;-9.0200
1275.8630;-30.8900;-22.5000;-8.3900
1276.0620;-30.2700;-22.3900;-7.8800
1276.2610;-29.7200;-22.3000;-7.4200
1276.4600;-29.2200;-22.2100;-7.0100
1276.6590;-28.7900;-22.1000;-6.6900
1276.8580;-28.4100;-22.0200;-6.3900
1277.0580;-28.0900;-21.9200;-6.1700
1277.2570;-27.8400;-21.8300;-6.0100
1277.4560;-27.6300;-21.7400;-5.8900
1277.6550;-27.4900;-21.6500;-5.8400
1277.8540;-27.3700;-21.5700;-5.8000
1278.0530;-27.3200;-21.4700;-5.8500
1278.2520;-27.3200;-21.3900;-5.9300
1278.4510;-27.3500;-21.3000;-6.0500
1278.6500;-27.4600;-21.2200;-6.2400
1278.8500;-27.5900;-21.1400;-6.4500
1279.0490;-27.8000;-21.0500;-6.7500
1279.2480;-28.0500;-20.9800;-7.0700
1279.4470;-28.3500;-20.8900;-7.4600
1279.6460;-28.7300;-20.8100;-7.9200
1279.8450;-29.1400;-20.7400;-8.4000
1280.0440;-29.6200;-20.6500;-8.9700
1280.2430;-30.1300;-20.5900;-9.5400
1280.4430;-30.6800;-20.5000;-10.1800
1280.6420;-31.2300;-20.4300;-10.8000
1280.8410;-31.7100;-20.3500;-11.3600
1281.0400;-32.0800;-20.2700;-11.8100
1281.2390;-32.2200;-20.2000;-12.0200
1281.4380;-32.0900;-20.1200;-11.9700
1281.6370;-31.6800;-20.0500;-11.6300
1281.8360;-31.0200;-19.9700;-11.0500
1282.0350;-30.2100;-19.8900;-10.3200
1282.2350;-29.2900;-19.8300;-9.4600
1282.4340;-28.3700;-19.7400;-8.6300
1282.6330;-27.4700;-19.6800;-7.7900
1282.8320;-26.5900;-19.6100;-6.9800
1283.0310;-25.6600;-19.5300;-6.1300
1283.2300;-25.0200;-19.4700;-5.5500
1283.4290;-24.3300;-19.4000;-4.9300
1283.6280;-23.6600;-19.3300;-4.3300
1283.8270;-23.0700;-19.2600;-3.8100
1284.0270;-22.5100;-19.1900;-3.3200
1284.2260;-22.0100;-19.1300;-2.8800
1284.4250;-21.5600;-19.0600;-2.5000
1284.6240;-21.1400;-19.0000;-2.1400
1284.8230;-20.7600;-18.9300;-1.8300
1285.0220;-20.4300;-18.8600;-1.5700
1285.2210;-20.1300;-18.8000;-1.3300
1285.4200;-19.8900;-18.7300;-1.1600
1285.6200;-19.6600;-18.6700;-0.9900
1285.8190;-19.4900;-18.5900;-0.9000
1286.0180;-19.3400;-18.5300;-0.8100
1286.2170;-19.2400;-18.4700;-0.7700
1286.4160;-19.1800;-18.3900;-0.7900
1286.6150;-19.1600;-18.3400;-0.8200
1286.8140;-19.1800;-18.2700;-0.9100
1287.0130;-19.2300;-18.2000;-1.0300
1287.2120;-19.3200;-18.1400;-1.1800
1287.4120;-19.4800;-18.0700;-1.4100
1287.6110;-19.6600;-18.0200;-1.6400
1287.8100;-19.9000;-17.9400;-1.9600
1288.0090;-20.1900;-17.8900;-2.3000
1288.2080;-20.5400;-17.8200;-2.7200
1288.4070;-20.9500;-17.7600;-3.1900
1288.6060;-21.4300;-17.7100;-3.7200
1288.8050;-21.9900;-17.6500;-4.3400
1289.0040;-22.6300;-17.6000;-5.0300
1289.2040;-23.3600;-17.5300;-5.8300
1289.4030;-24.2200;-17.4800;-6.7400
1289.6020;-25.1900;-17.4400;-7.7500
1289.8010;-26.3300;-17.3800;-8.9500
1290.0000;-27.6100;-17.3400;-10.2700
1290.1990;-29.4000;-17.2800;-12.1200
1290.3980;-30.6700;-17.2300;-13.4400
1290.5970;-32.1000;-17.2000;-14.9000
1290.7970;-32.8300;-17.1400;-15.6900
1290.9960;-32.3500;-17.1000;-15.2500
1291.1950;-30.9800;-17.0400;-13.9400
1291.3940;-29.2900;-17.0000;-12.2900
1291.5930;-27.6600;-16.9400;-10.7200
1291.7920;-26.1800;-16.9000;-9.2800
1291.9910;-24.7000;-16.8600;-7.8400
1292.1900;-23.7700;-16.8000;-6.9700
1292.3890;-22.7900;-16.7600;-6.0300
1292.5890;-21.9300;-16.7100;-5.2200
1292.7880;-21.1600;-16.6600;-4.5000
1292.9870;-20.4900;-16.6300;-3.8600
1293.1860;-19.9000;-16.5700;-3.3300
1293.3850;-19.3700;-16.5400;-2.8300
1293.5840;-18.9100;-16.4800;-2.4300
1293.7830;-18.5100;-16.4400;-2.0700
1293.9820;-18.1800;-16.4100;-1.7700
1294.1810;-17.8800;-16.3600;-1.5200
1294.3810;-17.6400;-16.3400;-1.3000
1294.5800;-17.4400;-16.2700;-1.1700
1294.7790;-17.2900;-16.2400;-1.0500
1294.9780;-17.2000;-16.2000;-1.0000
1295.1770;-17.1300;-16.1600;-0.9700
1295.3760;-17.1000;-16.1300;-0.9700
1295.5750;-17.1100;-16.0800;-1.0300
1295.7740;-17.1700;-16.0600;-1.1100
1295.9740;-17.2800;-16.0000;-1.2800
1296.1730;-17.4200;-15.9700;-1.4500
1296.3720;-17.6200;-15.9300;-1.6900
1296.5710;-17.8500;-15.8900;-1.9600
1296.7700;-18.1400;-15.8700;-2.2700
1296.9690;-18.4900;-15.8200;-2.6700
1297.1680;-18.8800;-15.8000;-3.0800
1297.3670;-19.3400;-15.7500;-3.5900
1297.5660;-19.8300;-15.7200;-4.1100
1297.7660;-20.4100;-15.6900;-4.7200
1297.9650;-21.0700;-15.6600;-5.4100
1298.1640;-21.7900;-15.6400;-6.1500
1298.3630;-22.5900;-15.6000;-6.9900
1298.5620;-23.4300;-15.5600;-7.8700
1298.7610;-24.3400;-15.5400;-8.8000
1298.9600;-25.2400;-15.5100;-9.7300
1299.1590;-26.0600;-15.5000;-10.5600
1299.3580;-26.6800;-15.4600;-11.2200
1299.5580;-26.9200;-15.4300;-11.4900
1299.7570;-26.7500;-15.4000;-11.3500
1299.9560;-26.1900;-15.3800;-10.8100
1300.1550;-25.3700;-15.3700;-10.0000
1300.3540;-24.4500;-15.3300;-9.1200
1300.5530;-23.4700;-15.3100;-8.1600
1300.7520;-22.5700;-15.2800;-7.2900
1300.9510;-21.7100;-15.2600;-6.4500
1301.1500;-20.9200;-15.2500;-5.6700
1301.3500;-20.2200;-15.2200;-5.0000
1301.5490;-19.5800;-15.2200;-4.3600
1301.7480;-19.0100;-15.1900;-3.8200
1301.9470;-18.4800;-15.1700;-3.3100
1302.1460;-18.0300;-15.1700;-2.8600
1302.3450;-17.6400;-15.1500;-2.4900
1302.5440;-17.2900;-15.1500;-2.1400
1302.7430;-17.0000;-15.1200;-1.8800
1302.9430;-16.7400;-15.1000;-1.6400
1303.1420;-16.5400;-15.1000;-1.4400
1303.3410;-16.3800;-15.0800;-1.3000
1303.5400;-16.2700;-15.0900;-1.1800
1303.7390;-16.2000;-15.0700;-1.1300
1303.9380;-16.1600;-15.0600;-1.1000
1304.1370;-16.1900;-15.0600;-1.1300
1304.3360;-16.2300;-15.0500;-1.1800
1304.5350;-16.3300;-15.0600;-1.2700
1304.7350;-16.4800;-15.0600;-1.4200
1304.9340;-16.6500;-15.0600;-1.5900
1305.1330;-16.9000;-15.0600;-1.8400
1305.3320;-17.1700;-15.0600;-2.1100
1305.5310;-17.5100;-15.0800;-2.4300
1305.7300;-17.9100;-15.0800;-2.8300
1305.9290;-18.3500;-15.0900;-3.2600
1306.1280;-18.8900;-15.1000;-3.7900
1306.3270;-19.4700;-15.1100;-4.3600
1306.5270;-20.1600;-15.1400;-5.0200
1306.7260;-20.9400;-15.1400;-5.8000
1306.9250;-21.8200;-15.1700;-6.6500
1307.1240;-22.8700;-15.1700;-7.7000
1307.3230;-24.0300;-15.1900;-8.8400
1307.5220;-25.3900;-15.2100;-10.1800
1307.7210;-26.9200;-15.2300;-11.6900
1307.9200;-28.9500;-15.2600;-13.6900
1308.1200;-30.2200;-15.2700;-14.9500
1308.3190;-31.1700;-15.2900;-15.8800
1308.5180;-30.9800;-15.3200;-15.6600
1308.7170;-29.7100;-15.3400;-14.3700
1308.9160;-28.0800;-15.3700;-12.7100
1309.1150;-26.4800;-15.3800;-11.1000
1309.3140;-24.8000;-15.4100;-9.3900
1309.5130;-23.7900;-15.4300;-8.3600
1309.7120;-22.7000;-15.4500;-7.2500
