Wavelength;Intensity_Meas;Intensity_Ref;Difference_dB
1200.0000;-60.6000;-55.6000;-5.0000
1200.1990;-60.5800;-55.5600;-5.0200
1200.3980;-60.6000;-55.5400;-5.0600
1200.5970;-60.5800;-55.5000;-5.0800
1200.7970;-60.5300;-55.4800;-5.0500
1200.9960;-60.4800;-55.4400;-5.0400
1201.1950;-60.5000;-55.3900;-5.1100
1201.3940;-60.4900;-55.3500;-5.1400
1201.5930;-60.4200;-55.3200;-5.1000
1201.7920;-60.3700;-55.2800;-5.0900
1201.9910;-60.3300;-55.2100;-5.1200
1202.1900;-60.3400;-55.1600;-5.1800
1202.3890;-60.2800;-55.1100;-5.1700
1202.5890;-60.2000;-55.0800;-5.1200
1202.7880;-60.1600;-55.0100;-5.1500
1202.9870;-60.1600;-54.9400;-5.2200
1203.1860;-60.1200;-54.8900;-5.2300
1203.3850;-60.0500;-54.8700;-5.1800
1203.5840;-60.0100;-54.8100;-5.2000
1203.7830;-60.0500;-54.7500;-5.3000
1203.9820;-60.0900;-54.7200;-5.3700
1204.1810;-60.0400;-54.6800;-5.3600
1204.3810;-60.0500;-54.6400;-5.4100
1204.5800;-60.0900;-54.6000;-5.4900
1204.7790;-60.1500;-54.5800;-5.5700
1204.9780;-60.1800;-54.5500;-5.6300
1205.1770;-60.1700;-54.5100;-5.6600
1205.3760;-60.2200;-54.4800;-5.7400
1205.5750;-60.2500;-54.4600;-5.7900
1205.7740;-60.2900;-54.4400;-5.8500
1205.9740;-60.2600;-54.4400;-5.8200
1206.1730;-60.2100;-54.4100;-5.8000
1206.3720;-60.2500;-54.3800;-5.8700
1206.5710;-60.2500;-54.3500;-5.9000
1206.7700;-60.2000;-54.3400;-5.8600
1206.9690;-60.0900;-54.3100;-5.7800
1207.1680;-60.0500;-54.2700;-5.7800
1207.3670;-60.0700;-54.2400;-5.8300
1207.5660;-59.9900;-54.2200;-5.7700
1207.7660;-59.8700;-54.1900;-5.6800
1207.9650;-59.8200;-54.1500;-5.6700
1208.1640;-59.7800;-54.0900;-5.6900
1208.3630;-59.7100;-54.0700;-5.6400
1208.5620;-59.6100;-54.0300;-5.5800
1208.7610;-59.5200;-53.9700;-5.5500
1208.9600;-59.4800;-53.9200;-5.5600
1209.1590;-59.4000;-53.8600;-5.5400
1209.3580;-59.2900;-53.8200;-5.4700
1209.5580;-59.1700;-53.7600;-5.4100
1209.7570;-59.0900;-53.7100;-5.3800
1209.9560;-59.0300;-53.6500;-5.3800
1210.1550;-58.9000;-53.6100;-5.2900
1210.3540;-58.7900;-53.5700;-5.2200
1210.5530;-58.7100;-53.4900;-5.2200
1210.7520;-58.6600;-53.4400;-5.2200
1210.9510;-58.5600;-53.4100;-5.1500
1211.1500;-58.4700;-53.3500;-5.1200
1211.3500;-58.4100;-53.3100;-5.1000
1211.5490;-58.3800;-53.2600;-5.1200
1211.7480;-58.3600;-53.2300;-5.1300
1211.9470;-58.3300;-53.2100;-5.1200
1212.1460;-58.3000;-53.1600;-5.1400
1212.3450;-58.3400;-53.1200;-5.2200
1212.5440;-58.3600;-53.1000;-5.2600
1212.7430;-58.3500;-53.0700;-5.2800
1212.9430;-58.3900;-53.0300;-5.3600
1213.1420;-58.4400;-52.9900;-5.4500
1213.3410;-58.5100;-52.9800;-5.5300
1213.5400;-58.5000;-52.9500;-5.5500
1213.7390;-58.5200;-52.9000;-5.6200
1213.9380;-58.5600;-52.8700;-5.6900
1214.1370;-58.5900;-52.8300;-5.7600
1214.3360;-58.6100;-52.8000;-5.8100
1214.5350;-58.5900;-52.7600;-5.8300
1214.7350;-58.6100;-52.7100;-5.9000
1214.9340;-58.6200;-52.6600;-5.9600
1215.1330;-58.5800;-52.6200;-5.9600
1215.3320;-58.5400;-52.5800;-5.9600
1215.5310;-58.5200;-52.5100;-6.0100
1215.7300;-58.5200;-52.4500;-6.0700
1215.9290;-58.4600;-52.4200;-6.0400
1216.1280;-58.3900;-52.3500;-6.0400
1216.3270;-58.3300;-52.2900;-6.0400
1216.5270;-58.2800;-52.2300;-6.0500
1216.7260;-58.2000;-52.1700;-6.0300
1216.9250;-58.1000;-52.1200;-5.9800
1217.1240;-57.9900;-52.0500;-5.9400
1217.3230;-57.9100;-52.0000;-5.9100
1217.5220;-57.8000;-51.9400;-5.8600
1217.7210;-57.6600;-51.8900;-5.7700
1217.9200;-57.5300;-51.8400;-5.6900
1218.1200;-57.4200;-51.7700;-5.6500
1218.3190;-57.3000;-51.7400;-5.5600
1218.5180;-57.1500;-51.6900;-5.4600
1218.7170;-57.0100;-51.6500;-5.3600
1218.9160;-56.9000;-51.6100;-5.2900
1219.1150;-56.8100;-51.5600;-5.2500
1219.3140;-56.7100;-51.5400;-5.1700
1219.5130;-56.6000;-51.5000;-5.1000
1219.7120;-56.5300;-51.4500;-5.0800
1219.9120;-56.4900;-51.4200;-5.0700
1220.1110;-56.4100;-51.3900;-5.0200
1220.3100;-56.3700;-51.3500;-5.0200
1220.5090;-56.3200;-51.3000;-5.0200
1220.7080;-56.3200;-51.2600;-5.0600
1220.9070;-56.2900;-51.2200;-5.0700
1221.1060;-56.2500;-51.1600;-5.0900
1221.3050;-56.2600;-51.1200;-5.1400
1221.5040;-56.2400;-51.0400;-5.2000
1221.7040;-56.2300;-50.9900;-5.2400
1221.9030;-56.2200;-50.9400;-5.2800
1222.1020;-56.2100;-50.8600;-5.3500
1222.3010;-56.2500;-50.8100;-5.4400
1222.5000;-56.2200;-50.7300;-5.4900
1222.6990;-56.2300;-50.6700;-5.5600
1222.8980;-56.2400;-50.5900;-5.6500
1223.0970;-56.2500;-50.5100;-5.7400
1223.2970;-56.2700;-50.4600;-5.8100
1223.4960;-56.2500;-50.3700;-5.8800
1223.6950;-56.2600;-50.3000;-5.9600
1223.8940;-56.3000;-50.2400;-6.0600
1224.0930;-56.2900;-50.1600;-6.1300
1224.2920;-56.2900;-50.1100;-6.1800
1224.4910;-56.2600;-50.0200;-6.2400
1224.6900;-56.2500;-49.9600;-6.2900
1224.8890;-56.2100;-49.9000;-6.3100
1225.0890;-56.1400;-49.8400;-6.3000
1225.2880;-56.0800;-49.7800;-6.3000
1225.4870;-55.9800;-49.7100;-6.2700
1225.6860;-55.8700;-49.6600;-6.2100
1225.8850;-55.7000;-49.6200;-6.0800
1226.0840;-55.5900;-49.5500;-6.0400
1226.2830;-55.4600;-49.5100;-5.9500
1226.4820;-55.2900;-49.4400;-5.8500
1226.6810;-55.1400;-49.4000;-5.7400
1226.8810;-54.9800;-49.3500;-5.6300
1227.0800;-54.8300;-49.2800;-5.5500
1227.2790;-54.6800;-49.2400;-5.4400
1227.4780;-54.5100;-49.1700;-5.3400
1227.6770;-54.3800;-49.1100;-5.2700
1227.8760;-54.2400;-49.0500;-5.1900
1228.0750;-54.1000;-48.9800;-5.1200
1228.2740;-53.9800;-48.9200;-5.0600
1228.4740;-53.8500;-48.8400;-5.0100
1228.6730;-53.7600;-48.7700;-4.9900
1228.8720;-53.6400;-48.7000;-4.9400
1229.0710;-53.5400;-48.6200;-4.9200
1229.2700;-53.4700;-48.5500;-4.9200
1229.4690;-53.3900;-48.4500;-4.9400
1229.6680;-53.3300;-48.3800;-4.9500
1229.8670;-53.2600;-48.3000;-4.9600
1230.0660;-53.2200;-48.2100;-5.0100
1230.2660;-53.2000;-48.1300;-5.0700
1230.4650;-53.1600;-48.0400;-5.1200
1230.6640;-53.1700;-47.9600;-5.2100
1230.8630;-53.1900;-47.8900;-5.3000
1231.0620;-53.2200;-47.8100;-5.4100
1231.2610;-53.2700;-47.7600;-5.5100
1231.4600;-53.3300;-47.6800;-5.6500
1231.6590;-53.4000;-47.6200;-5.7800
1231.8580;-53.4600;-47.5500;-5.9100
1232.0580;-53.5300;-47.5000;-6.0300
1232.2570;-53.6100;-47.4400;-6.1700
1232.4560;-53.6900;-47.3700;-6.3200
1232.6550;-53.7500;-47.3200;-6.4300
1232.8540;-53.7800;-47.2500;-6.5300
1233.0530;-53.8100;-47.2000;-6.6100
1233.2520;-53.8300;-47.1500;-6.6800
1233.4510;-53.8100;-47.0700;-6.7400
1233.6500;-53.7800;-47.0300;-6.7500
1233.8500;-53.7100;-46.9500;-6.7600
1234.0490;-53.6400;-46.8900;-6.7500
1234.2480;-53.5400;-46.8300;-6.7100
1234.4470;-53.4200;-46.7500;-6.6700
1234.6460;-53.3100;-46.6900;-6.6200
1234.8450;-53.1700;-46.6100;-6.5600
1235.0440;-53.0100;-46.5300;-6.4800
1235.2430;-52.8700;-46.4600;-6.4100
1235.4430;-52.7000;-46.3600;-6.3400
1235.6420;-52.5600;-46.2900;-6.2700
1235.8410;-52.3800;-46.1900;-6.1900
1236.0400;-52.2300;-46.1100;-6.1200
1236.2390;-52.0700;-46.0200;-6.0500
1236.4380;-51.9100;-45.9100;-6.0000
1236.6370;-51.7800;-45.8300;-5.9500
1236.8360;-51.6200;-45.7400;-5.8800
1237.0350;-51.5000;-45.6700;-5.8300
1237.2350;-51.3800;-45.5700;-5.8100
1237.4340;-51.2600;-45.4700;-5.7900
1237.6330;-51.1800;-45.3900;-5.7900
1237.8320;-51.0900;-45.3100;-5.7800
1238.0310;-51.0100;-45.2400;-5.7700
1238.2300;-50.9400;-45.1500;-5.7900
1238.4290;-50.8800;-45.0700;-5.8100
1238.6280;-50.8500;-45.0000;-5.8500
1238.8270;-50.7900;-44.9100;-5.8800
1239.0270;-50.7600;-44.8500;-5.9100
1239.2260;-50.7100;-44.7500;-5.9600
1239.4250;-50.6600;-44.6700;-5.9900
1239.6240;-50.6300;-44.6000;-6.0300
1239.8230;-50.5600;-44.5100;-6.0500
1240.0220;-50.5100;-44.4400;-6.0700
1240.2210;-50.4100;-44.3400;-6.0700
1240.4200;-50.3100;-44.2500;-6.0600
1240.6200;-50.2200;-44.1600;-6.0600
1240.8190;-50.0800;-44.0600;-6.0200
1241.0180;-49.9300;-43.9600;-5.9700
1241.2170;-49.7700;-43.8500;-5.9200
1241.4160;-49.6100;-43.7400;-5.8700
1241.6150;-49.4400;-43.6200;-5.8200
1241.8140;-49.2600;-43.5000;-5.7600
1242.0130;-49.1000;-43.4000;-5.7000
1242.2120;-48.9300;-43.2700;-5.6600
1242.4120;-48.7600;-43.1500;-5.6100
1242.6110;-48.6100;-43.0300;-5.5800
1242.8100;-48.4600;-42.9000;-5.5600
1243.0090;-48.3300;-42.7800;-5.5500
1243.2080;-48.2000;-42.6500;-5.5500
1243.4070;-48.0900;-42.5300;-5.5600
1243.6060;-48.0100;-42.4000;-5.6100
1243.8050;-47.9300;-42.2800;-5.6500
1244.0040;-47.8600;-42.1600;-5.7000
1244.2040;-47.8200;-42.0300;-5.7900
1244.4030;-47.8000;-41.9100;-5.8900
1244.6020;-47.8000;-41.7900;-6.0100
1244.8010;-47.8000;-41.6700;-6.1300
1245.0000;-47.8500;-41.5700;-6.2800
1245.1990;-47.8900;-41.4400;-6.4500
1245.3980;-47.9500;-41.3300;-6.6200
1245.5970;-48.0300;-41.2000;-6.8300
1245.7970;-48.1000;-41.0800;-7.0200
1245.9960;-48.1800;-40.9700;-7.2100
1246.1950;-48.2400;-40.8400;-7.4000
1246.3940;-48.3000;-40.7200;-7.5800
1246.5930;-48.3200;-40.5800;-7.7400
1246.7920;-48.2900;-40.4600;-7.8300
1246.9910;-48.2300;-40.3300;-7.9000
1247.1900;-48.0900;-40.1900;-7.9000
1247.3890;-47.9000;-40.0500;-7.8500
1247.5890;-47.6400;-39.9100;-7.7300
1247.7880;-47.3100;-39.7700;-7.5400
1247.9870;-46.9400;-39.6400;-7.3000
1248.1860;-46.5100;-39.4900;-7.0200
1248.3850;-46.0700;-39.3500;-6.7200
1248.5840;-45.5200;-39.2000;-6.3200
1248.7830;-45.1400;-39.0500;-6.0900
1248.9820;-44.6800;-38.9300;-5.7500
1249.1810;-44.2100;-38.7700;-5.4400
1249.3810;-43.7800;-38.6400;-5.1400
1249.5800;-43.3300;-38.5000;-4.8300
1249.7790;-42.9300;-38.3600;-4.5700
1249.9780;-42.5400;-38.2200;-4.3200
1250.1770;-42.1800;-38.0800;-4.1000
1250.3760;-41.8500;-37.9500;-3.9000
1250.5750;-41.5200;-37.8100;-3.7100
1250.7740;-41.2400;-37.6800;-3.5600
1250.9740;-41.0100;-37.5700;-3.4400
1251.1730;-40.7700;-37.4300;-3.3400
1251.3720;-40.5800;-37.3000;-3.2800
1251.5710;-40.4200;-37.1800;-3.2400
1251.7700;-40.2800;-37.0400;-3.2400
1251.9690;-40.1800;-36.9200;-3.2600
1252.1680;-40.1100;-36.7700;-3.3400
1252.3670;-40.0800;-36.6500;-3.4300
1252.5660;-40.0800;-36.5200;-3.5600
1252.7660;-40.1200;-36.3800;-3.7400
1252.9650;-40.2200;-36.2600;-3.9600
1253.1640;-40.3400;-36.1100;-4.2300
1253.3630;-40.5200;-35.9700;-4.5500
1253.5620;-40.7400;-35.8000;-4.9400
1253.7610;-41.0200;-35.6900;-5.3300
1253.9600;-41.3500;-35.5400;-5.8100
1254.1590;-41.7300;-35.4000;-6.3300
1254.3580;-42.1700;-35.2500;-6.9200
1254.5580;-42.6400;-35.1100;-7.5300
1254.7570;-43.1700;-34.9700;-8.2000
1254.9560;-43.7200;-34.8100;-8.9100
1255.1550;-44.2700;-34.6700;-9.6000
1255.3540;-44.7800;-34.5400;-10.2400
1255.5530;-45.1800;-34.4000;-10.7800
1255.7520;-45.4100;-34.2700;-11.1400
1255.9510;-45.3800;-34.1200;-11.2600
1256.1500;-45.1000;-34.0000;-11.1000
1256.3500;-44.5900;-33.8600;-10.7300
1256.5490;-43.8600;-33.7300;-10.1300
1256.7480;-43.0400;-33.6200;-9.4200
1256.9470;-42.1600;-33.4700;-8.6900
1257.1460;-41.2800;-33.3500;-7.9300
1257.3450;-40.4200;-33.2300;-7.1900
1257.5440;-39.5900;-33.1000;-6.4900
1257.7430;-38.8100;-32.9900;-5.8200
1257.9430;-38.0700;-32.8400;-5.2300
1258.1420;-37.3800;-32.7300;-4.6500
1258.3410;-36.7500;-32.5900;-4.1600
1258.5400;-36.1600;-32.4700;-3.6900
1258.7390;-35.5300;-32.3500;-3.1800
1258.9380;-35.1100;-32.2000;-2.9100
1259.1370;-34.6700;-32.0800;-2.5900
1259.3360;-34.2600;-31.9300;-2.3300
1259.5350;-33.8900;-31.8000;-2.0900
1259.7350;-33.5700;-31.6700;-1.9000
1259.9340;-33.2600;-31.5200;-1.7400
1260.1330;-33.0100;-31.4000;-1.6100
1260.3320;-32.8000;-31.2600;-1.5400
1260.5310;-32.6200;-31.1300;-1.4900
1260.7300;-32.4800;-31.0000;-1.4800
1260.9290;-32.3600;-30.8600;-1.5000
1261.1280;-32.2900;-30.7300;-1.5600
1261.3270;-32.2500;-30.5900;-1.6600
1261.5270;-32.2500;-30.4700;-1.7800
1261.7260;-32.2900;-30.3500;-1.9400
1261.9250;-32.3400;-30.2100;-2.1300
1262.1240;-32.4300;-30.0900;-2.3400
1262.3230;-32.5600;-29.9600;-2.6000
1262.5220;-32.7300;-29.8500;-2.8800
1262.7210;-32.9400;-29.7300;-3.2100
1262.9200;-33.1500;-29.6000;-3.5500
1263.1200;-33.4000;-29.4800;-3.9200
1263.3190;-33.6700;-29.3500;-4.3200
1263.5180;-33.9600;-29.2300;-4.7300
1263.7170;-34.2700;-29.1200;-5.1500
1263.9160;-34.5400;-28.9900;-5.5500
1264.1150;-34.8000;-28.8700;-5.9300
1264.3140;-35.0000;-28.7400;-6.2600
1264.5130;-35.1400;-28.6200;-6.5200
1264.7120;-35.1900;-28.5000;-6.6900
1264.9120;-35.1200;-28.3600;-6.7600
1265.1110;-34.9500;-28.2400;-6.7100
1265.3100;-34.6700;-28.1000;-6.5700
1265.5090;-34.3100;-27.9900;-6.3200
1265.7080;-33.9000;-27.8600;-6.0400
1265.9070;-33.4100;-27.7300;-5.6800
1266.1060;-32.9200;-27.6100;-5.3100
1266.3050;-32.4200;-27.4800;-4.9400
1266.5040;-31.9400;-27.3700;-4.5700
1266.7040;-31.4800;-27.2500;-4.2300
1266.9030;-31.0200;-27.1200;-3.9000
1267.1020;-30.6100;-27.0200;-3.5900
1267.3010;-30.2200;-26.8900;-3.3300
1267.5000;-29.8700;-26.7900;-3.0800
1267.6990;-29.5600;-26.6800;-2.8800
1267.8980;-29.2600;-26.5600;-2.7000
1268.0970;-29.0200;-26.4700;-2.5500
1268.2970;-28.8000;-26.3400;-2.4600
1268.4960;-28.6200;-26.2500;-2.3700
1268.6950;-28.4800;-26.1300;-2.3500
1268.8940;-28.3500;-26.0100;-2.3400
1269.0930;-28.2800;-25.9100;-2.3700
1269.2920;-28.2300;-25.8000;-2.4300
1269.4910;-28.2400;-25.7100;-2.5300
1269.6900;-28.2900;-25.5900;-2.7000
1269.8890;-28.3600;-25.4900;-2.8700
1270.0890;-28.5000;-25.3700;-3.1300
1270.2880;-28.6700;-25.2600;-3.4100
1270.4870;-28.9000;-25.1700;-3.7300
1270.6860;-29.1900;-25.0500;-4.1400
1270.8850;-29.5100;-24.9400;-4.5700
1271.0840;-29.9100;-24.8200;-5.0900
1271.2830;-30.3500;-24.7200;-5.6300
1271.4820;-30.8600;-24.6200;-6.2400
1271.6810;-31.4100;-24.5000;-6.9100
1271.8810;-32.0100;-24.4100;-7.6000
1272.0800;-32.6400;-24.2900;-8.3500
1272.2790;-33.2400;-24.1900;-9.0500
1272.4780;-33.7900;-24.0900;-9.7000
1272.6770;-34.2200;-23.9900;-10.2300
1272.8760;-34.4400;-23.9000;-10.5400
1273.0750;-34.4300;-23.7900;-10.6400
1273.2740;-34.1200;-23.7000;-10.4200
1273.4740;-33.5900;-23.6100;-9.9800
1273.6730;-32.8900;-23.5100;-9.3800
1273.8720;-32.0900;-23.4200;-8.6700
1274.0710;-31.2800;-23.3200;-7.9600
1274.2700;-30.4500;-23.2300;-7.2200
1274.4690;-29.6500;-23.1500;-6.5000
1274.6680;-28.8900;-23.0500;-5.8400
1274.8670;-28.1800;-22.9700;-5.2100
1275.0660;-27.5300;-22.8700;-4.6600
1275.2660;-26.9200;-22.7700;-4.1500
1275.4650;-26.3700;-22.6800;-3.6900
1275.6640;-25.7800;-22.5800;-3.2000
1275.8630;-25.4100;-22.5000;-2.9100
1276.0620;-24.9900;-22.3900;-2.6000
1276.2610;-24.6300;-22.3000;-2.3300
1276.4600;-24.3200;-22.2100;-2.1100
1276.6590;-24.0200;-22.1000;-1.9200
1276.8580;-23.8000;-22.0200;-1.7800
1277.0580;-23.6000;-21.9200;-1.6800
1277.2570;-23.4500;-21.8300;-1.6200
1277.4560;-23.3400;-21.7400;-1.6000
1277.6550;-23.2600;-21.6500;-1.6100
1277.8540;-23.2400;-21.5700;-1.6700
1278.0530;-23.2400;-21.4700;-1.7700
1278.2520;-23.2800;-21.3900;-1.8900
1278.4510;-23.3700;-21.3000;-2.0700
1278.6500;-23.4900;-21.2200;-2.2700
1278.8500;-23.6700;-21.1400;-2.5300
1279.0490;-23.8600;-21.0500;-2.8100
1279.2480;-24.1200;-20.9800;-3.1400
1279.4470;-24.4100;-20.8900;-3.5200
1279.6460;-24.7600;-20.8100;-3.9500
1279.8450;-25.1600;-20.7400;-4.4200
1280.0440;-25.6000;-20.6500;-4.9500
1280.2430;-26.1100;-20.5900;-5.5200
1280.4430;-26.6400;-20.5000;-6.1400
1280.6420;-27.2200;-20.4300;-6.7900
1280.8410;-27.8400;-20.3500;-7.4900
1281.0400;-28.5400;-20.2700;-8.2700
1281.2390;-29.0000;-20.2000;-8.8000
1281.4380;-29.4200;-20.1200;-9.3000
1281.6370;-29.6600;-20.0500;-9.6100
1281.8360;-29.6300;-19.9700;-9.6600
1282.0350;-29.3300;-19.8900;-9.4400
1282.2350;-28.8100;-19.8300;-8.9800
1282.4340;-28.1100;-19.7400;-8.3700
1282.6330;-27.3500;-19.6800;-7.6700
1282.8320;-26.5200;-19.6100;-6.9100
1283.0310;-25.6000;-19.5300;-6.0700
1283.2300;-24.9400;-19.4700;-5.4700
1283.4290;-24.2200;-19.4000;-4.8200
1283.6280;-23.5500;-19.3300;-4.2200
1283.8270;-22.9200;-19.2600;-3.6600
1284.0270;-22.3500;-19.1900;-3.1600
1284.2260;-21.8200;-19.1300;-2.6900
1284.4250;-21.3400;-19.0600;-2.2800
1284.6240;-20.9100;-19.0000;-1.9100
1284.8230;-20.5200;-18.9300;-1.5900
1285.0220;-20.1800;-18.8600;-1.3200
1285.2210;-19.8700;-18.8000;-1.0700
1285.4200;-19.6100;-18.7300;-0.8800
1285.6200;-19.3800;-18.6700;-0.7100
1285.8190;-19.1900;-18.5900;-0.6000
1286.0180;-19.0500;-18.5300;-0.5200
1286.2170;-18.9200;-18.4700;-0.4500
1286.4160;-18.8500;-18.3900;-0.4600
1286.6150;-18.8200;-18.3400;-0.4800
1286.8140;-18.8100;-18.2700;-0.5400
1287.0130;-18.8600;-18.2000;-0.6600
1287.2120;-18.9200;-18.1400;-0.7800
1287.4120;-19.0300;-18.0700;-0.9600
1287.6110;-19.1700;-18.0200;-1.1500
1287.8100;-19.3500;-17.9400;-1.4100
1288.0090;-19.5900;-17.8900;-1.7000
1288.2080;-19.8300;-17.8200;-2.0100
1288.4070;-20.1200;-17.7600;-2.3600
1288.6060;-20.4500;-17.7100;-2.7400
1288.8050;-20.8000;-17.6500;-3.1500
1289.0040;-21.1900;-17.6000;-3.5900
1289.2040;-21.5800;-17.5300;-4.0500
1289.4030;-22.0000;-17.4800;-4.5200
1289.6020;-22.3900;-17.4400;-4.9500
1289.8010;-22.7500;-17.3800;-5.3700
1290.0000;-23.0700;-17.3400;-5.7300
1290.1990;-23.2900;-17.2800;-6.0100
1290.3980;-23.4200;-17.2300;-6.1900
1290.5970;-23.4300;-17.2000;-6.2300
1290.7970;-23.2900;-17.1400;-6.1500
1290.9960;-23.0300;-17.1000;-5.9300
1291.1950;-22.6700;-17.0400;-5.6300
1291.3940;-22.2500;-17.0000;-5.2500
1291.5930;-21.7500;-16.9400;-4.8100
1291.7920;-21.2500;-16.9000;-4.3500
1291.9910;-20.7400;-16.8600;-3.8800
1292.1900;-20.2500;-16.8000;-3.4500
1292.3890;-19.7900;-16.7600;-3.0300
1292.5890;-19.3200;-16.7100;-2.6100
1292.7880;-18.9100;-16.6600;-2.2500
1292.9870;-18.5200;-16.6300;-1.8900
1293.1860;-18.1700;-16.5700;-1.6000
1293.3850;-17.8700;-16.5400;-1.3300
1293.5840;-17.5800;-16.4800;-1.1000
1293.7830;-17.3500;-16.4400;-0.9100
1293.9820;-17.1400;-16.4100;-0.7300
1294.1810;-16.9800;-16.3600;-0.6200
1294.3810;-16.8500;-16.3400;-0.5100
1294.5800;-16.7300;-16.2700;-0.4600
1294.7790;-16.6800;-16.2400;-0.4400
1294.9780;-16.6300;-16.2000;-0.4300
1295.1770;-16.6300;-16.1600;-0.4700
1295.3760;-16.6600;-16.1300;-0.5300
1295.5750;-16.7000;-16.0800;-0.6200
1295.7740;-16.8000;-16.0600;-0.7400
1295.9740;-16.9000;-16.0000;-0.9000
1296.1730;-17.0600;-15.9700;-1.0900
1296.3720;-17.2300;-15.9300;-1.3000
1296.5710;-17.4100;-15.8900;-1.5200
1296.7700;-17.6500;-15.8700;-1.7800
1296.9690;-17.8800;-15.8200;-2.0600
1297.1680;-18.1600;-15.8000;-2.3600
1297.3670;-18.4200;-15.7500;-2.6700
1297.5660;-18.6900;-15.7200;-2.9700
1297.7660;-18.9700;-15.6900;-3.2800
1297.9650;-19.2300;-15.6600;-3.5700
1298.1640;-19.4900;-15.6400;-3.8500
1298.3630;-19.6900;-15.6000;-4.0900
1298.5620;-19.8400;-15.5600;-4.2800
1298.7610;-19.9400;-15.5400;-4.4000
1298.9600;-19.9800;-15.5100;-4.4700
1299.1590;-19.9600;-15.5000;-4.4600
1299.3580;-19.8500;-15.4600;-4.3900
1299.5580;-19.6800;-15.4300;-4.2500
1299.7570;-19.4600;-15.4000;-4.0600
1299.9560;-19.2000;-15.3800;-3.8200
1300.1550;-18.9200;-15.3700;-3.5500
1300.3540;-18.6100;-15.3300;-3.2800
1300.5530;-18.3000;-15.3100;-2.9900
1300.7520;-17.9800;-15.2800;-2.7000
1300.9510;-17.6800;-15.2600;-2.4200
1301.1500;-17.4100;-15.2500;-2.1600
1301.3500;-17.1400;-15.2200;-1.9200
1301.5490;-16.9100;-15.2200;-1.6900
1301.7480;-16.6800;-15.1900;-1.4900
1301.9470;-16.4900;-15.1700;-1.3200
1302.1460;-16.3300;-15.1700;-1.1600
1302.3450;-16.1900;-15.1500;-1.0400
1302.5440;-16.0900;-15.1500;-0.9400
1302.7430;-16.0300;-15.1200;-0.9100
1302.9430;-16.0000;-15.1000;-0.9000
1303.1420;-15.9900;-15.1000;-0.8900
1303.3410;-16.0200;-15.0800;-0.9400
1303.5400;-16.0900;-15.0900;-1.0000
1303.7390;-16.1900;-15.0700;-1.1200
1303.9380;-16.3300;-15.0600;-1.2700
1304.1370;-16.5100;-15.0600;-1.4500
1304.3360;-16.7300;-15.0500;-1.6800
1304.5350;-16.9800;-15.0600;-1.9200
1304.7350;-17.2700;-15.0600;-2.2100
1304.9340;-17.6300;-15.0600;-2.5700
1305.1330;-18.0200;-15.0600;-2.9600
1305.3320;-18.5600;-15.0600;-3.5000
1305.5310;-18.9700;-15.0800;-3.8900
1305.7300;-19.5200;-15.0800;-4.4400
1305.9290;-20.1100;-15.0900;-5.0200
1306.1280;-20.7800;-15.1000;-5.6800
1306.3270;-21.5000;-15.1100;-6.3900
1306.5270;-22.2600;-15.1400;-7.1200
1306.7260;-23.0400;-15.1400;-7.9000
1306.9250;-23.8000;-15.1700;-8.6300
1307.1240;-24.5000;-15.1700;-9.3300
1307.3230;-25.0400;-15.1900;-9.8500
1307.5220;-25.3300;-15.2100;-10.1200
1307.7210;-25.3400;-15.2300;-10.1100
1307.9200;-25.0300;-15.2600;-9.7700
1308.1200;-24.5200;-15.2700;-9.2500
1308.3190;-23.8400;-15.2900;-8.5500
1308.5180;-23.1200;-15.3200;-7.8000
1308.7170;-22.3900;-15.3400;-7.0500
1308.9160;-21.6600;-15.3700;-6.2900
1309.1150;-21.0100;-15.3800;-5.6300
1309.3140;-20.3900;-15.4100;-4.9800
1309.5130;-19.8400;-15.4300;-4.4100
1309.7120;-19.3600;-15.4500;-3.9100
1309.9120;-18.9100;-15.4800;-3.4300
