Wavelength;Intensity_Meas;Intensity_Ref;Difference_dB
1200.0000;-60.7900;-55.6000;-5.1900
1200.1990;-60.7300;-55.5600;-5.1700
1200.3980;-60.7400;-55.5400;-5.2000
1200.5970;-60.7500;-55.5000;-5.2500
1200.7970;-60.7600;-55.4800;-5.2800
1200.9960;-60.6800;-55.4400;-5.2400
1201.1950;-60.6800;-55.3900;-5.2900
1201.3940;-60.7200;-55.3500;-5.3700
1201.5930;-60.7000;-55.3200;-5.3800
1201.7920;-60.6500;-55.2800;-5.3700
1201.9910;-60.6000;-55.2100;-5.3900
1202.1900;-60.6200;-55.1600;-5.4600
1202.3890;-60.6200;-55.1100;-5.5100
1202.5890;-60.5500;-55.0800;-5.4700
1202.7880;-60.4700;-55.0100;-5.4600
1202.9870;-60.4500;-54.9400;-5.5100
1203.1860;-60.4300;-54.8900;-5.5400
1203.3850;-60.3700;-54.8700;-5.5000
1203.5840;-60.2400;-54.8100;-5.4300
1203.7830;-60.1900;-54.7500;-5.4400
1203.9820;-60.1900;-54.7200;-5.4700
1204.1810;-60.1500;-54.6800;-5.4700
1204.3810;-60.0700;-54.6400;-5.4300
1204.5800;-60.0300;-54.6000;-5.4300
1204.7790;-60.0200;-54.5800;-5.4400
1204.9780;-60.0100;-54.5500;-5.4600
1205.1770;-59.9500;-54.5100;-5.4400
1205.3760;-59.9300;-54.4800;-5.4500
1205.5750;-59.9700;-54.4600;-5.5100
1205.7740;-60.0100;-54.4400;-5.5700
1205.9740;-59.9700;-54.4400;-5.5300
1206.1730;-59.9400;-54.4100;-5.5300
1206.3720;-59.9600;-54.3800;-5.5800
1206.5710;-60.0100;-54.3500;-5.6600
1206.7700;-60.0200;-54.3400;-5.6800
1206.9690;-59.9200;-54.3100;-5.6100
1207.1680;-59.8800;-54.2700;-5.6100
1207.3670;-59.9300;-54.2400;-5.6900
1207.5660;-59.9200;-54.2200;-5.7000
1207.7660;-59.8300;-54.1900;-5.6400
1207.9650;-59.7900;-54.1500;-5.6400
1208.1640;-59.8100;-54.0900;-5.7200
1208.3630;-59.8000;-54.0700;-5.7300
1208.5620;-59.7200;-54.0300;-5.6900
1208.7610;-59.6600;-53.9700;-5.6900
1208.9600;-59.6800;-53.9200;-5.7600
1209.1590;-59.6700;-53.8600;-5.8100
1209.3580;-59.6200;-53.8200;-5.8000
1209.5580;-59.5300;-53.7600;-5.7700
1209.7570;-59.5200;-53.7100;-5.8100
1209.9560;-59.5500;-53.6500;-5.9000
1210.1550;-59.4900;-53.6100;-5.8800
1210.3540;-59.3900;-53.5700;-5.8200
1210.5530;-59.3600;-53.4900;-5.8700
1210.7520;-59.3800;-53.4400;-5.9400
1210.9510;-59.3200;-53.4100;-5.9100
1211.1500;-59.2000;-53.3500;-5.8500
1211.3500;-59.1500;-53.3100;-5.8400
1211.5490;-59.1600;-53.2600;-5.9000
1211.7480;-59.1100;-53.2300;-5.8800
1211.9470;-59.0000;-53.2100;-5.7900
1212.1460;-58.9400;-53.1600;-5.7800
1212.3450;-58.9700;-53.1200;-5.8500
1212.5440;-58.9600;-53.1000;-5.8600
1212.7430;-58.8800;-53.0700;-5.8100
1212.9430;-58.8300;-53.0300;-5.8000
1213.1420;-58.8500;-52.9900;-5.8600
1213.3410;-58.8600;-52.9800;-5.8800
1213.5400;-58.7900;-52.9500;-5.8400
1213.7390;-58.7500;-52.9000;-5.8500
1213.9380;-58.7600;-52.8700;-5.8900
1214.1370;-58.7600;-52.8300;-5.9300
1214.3360;-58.7200;-52.8000;-5.9200
1214.5350;-58.6300;-52.7600;-5.8700
1214.7350;-58.6400;-52.7100;-5.9300
1214.9340;-58.6500;-52.6600;-5.9900
1215.1330;-58.5800;-52.6200;-5.9600
1215.3320;-58.4900;-52.5800;-5.9100
1215.5310;-58.4900;-52.5100;-5.9800
1215.7300;-58.5100;-52.4500;-6.0600
1215.9290;-58.4300;-52.4200;-6.0100
1216.1280;-58.3300;-52.3500;-5.9800
1216.3270;-58.3300;-52.2900;-6.0400
1216.5270;-58.3500;-52.2300;-6.1200
1216.7260;-58.3000;-52.1700;-6.1300
1216.9250;-58.2000;-52.1200;-6.0800
1217.1240;-58.1400;-52.0500;-6.0900
1217.3230;-58.1600;-52.0000;-6.1600
1217.5220;-58.1100;-51.9400;-6.1700
1217.7210;-58.0100;-51.8900;-6.1200
1217.9200;-57.9200;-51.8400;-6.0800
1218.1200;-57.8900;-51.7700;-6.1200
1218.3190;-57.8400;-51.7400;-6.1000
1218.5180;-57.7000;-51.6900;-6.0100
1218.7170;-57.6000;-51.6500;-5.9500
1218.9160;-57.5400;-51.6100;-5.9300
1219.1150;-57.4700;-51.5600;-5.9100
1219.3140;-57.3400;-51.5400;-5.8000
1219.5130;-57.2400;-51.5000;-5.7400
1219.7120;-57.2000;-51.4500;-5.7500
1219.9120;-57.1300;-51.4200;-5.7100
1220.1110;-57.0200;-51.3900;-5.6300
1220.3100;-56.9300;-51.3500;-5.5800
1220.5090;-56.8800;-51.3000;-5.5800
1220.7080;-56.8500;-51.2600;-5.5900
1220.9070;-56.7500;-51.2200;-5.5300
1221.1060;-56.6400;-51.1600;-5.4800
1221.3050;-56.6100;-51.1200;-5.4900
1221.5040;-56.5700;-51.0400;-5.5300
1221.7040;-56.4800;-50.9900;-5.4900
1221.9030;-56.3900;-50.9400;-5.4500
1222.1020;-56.3300;-50.8600;-5.4700
1222.3010;-56.2900;-50.8100;-5.4800
1222.5000;-56.2000;-50.7300;-5.4700
1222.6990;-56.1200;-50.6700;-5.4500
1222.8980;-56.0600;-50.5900;-5.4700
1223.0970;-56.0400;-50.5100;-5.5300
1223.2970;-55.9900;-50.4600;-5.5300
1223.4960;-55.9100;-50.3700;-5.5400
1223.6950;-55.9100;-50.3000;-5.6100
1223.8940;-55.9100;-50.2400;-5.6700
1224.0930;-55.8900;-50.1600;-5.7300
1224.2920;-55.8600;-50.1100;-5.7500
1224.4910;-55.8900;-50.0200;-5.8700
1224.6900;-55.9300;-49.9600;-5.9700
1224.8890;-55.9300;-49.9000;-6.0300
1225.0890;-55.9400;-49.8400;-6.1000
1225.2880;-55.9700;-49.7800;-6.1900
1225.4870;-56.0200;-49.7100;-6.3100
1225.6860;-56.0300;-49.6600;-6.3700
1225.8850;-56.0200;-49.6200;-6.4000
1226.0840;-56.0300;-49.5500;-6.4800
1226.2830;-56.0500;-49.5100;-6.5400
1226.4820;-56.0100;-49.4400;-6.5700
1226.6810;-55.9600;-49.4000;-6.5600
1226.8810;-55.9400;-49.3500;-6.5900
1227.0800;-55.9100;-49.2800;-6.6300
1227.2790;-55.8300;-49.2400;-6.5900
1227.4780;-55.7200;-49.1700;-6.5500
1227.6770;-55.6700;-49.1100;-6.5600
1227.8760;-55.6100;-49.0500;-6.5600
1228.0750;-55.4900;-48.9800;-6.5100
1228.2740;-55.3700;-48.9200;-6.4500
1228.4740;-55.2700;-48.8400;-6.4300
1228.6730;-55.2000;-48.7700;-6.4300
1228.8720;-55.0500;-48.7000;-6.3500
1229.0710;-54.9100;-48.6200;-6.2900
1229.2700;-54.8000;-48.5500;-6.2500
1229.4690;-54.6800;-48.4500;-6.2300
1229.6680;-54.5500;-48.3800;-6.1700
1229.8670;-54.3800;-48.3000;-6.0800
1230.0660;-54.2700;-48.2100;-6.0600
1230.2660;-54.1600;-48.1300;-6.0300
1230.4650;-54.0200;-48.0400;-5.9800
1230.6640;-53.9000;-47.9600;-5.9400
1230.8630;-53.8200;-47.8900;-5.9300
1231.0620;-53.7400;-47.8100;-5.9300
1231.2610;-53.6600;-47.7600;-5.9000
1231.4600;-53.5900;-47.6800;-5.9100
1231.6590;-53.5700;-47.6200;-5.9500
1231.8580;-53.5300;-47.5500;-5.9800
1232.0580;-53.5000;-47.5000;-6.0000
1232.2570;-53.4800;-47.4400;-6.0400
1232.4560;-53.5100;-47.3700;-6.1400
1232.6550;-53.5300;-47.3200;-6.2100
1232.8540;-53.5100;-47.2500;-6.2600
1233.0530;-53.5400;-47.2000;-6.3400
1233.2520;-53.5700;-47.1500;-6.4200
1233.4510;-53.5700;-47.0700;-6.5000
1233.6500;-53.5700;-47.0300;-6.5400
1233.8500;-53.5600;-46.9500;-6.6100
1234.0490;-53.5800;-46.8900;-6.6900
1234.2480;-53.5300;-46.8300;-6.7000
1234.4470;-53.4700;-46.7500;-6.7200
1234.6460;-53.4600;-46.6900;-6.7700
1234.8450;-53.4100;-46.6100;-6.8000
1235.0440;-53.3200;-46.5300;-6.7900
1235.2430;-53.2200;-46.4600;-6.7600
1235.4430;-53.1300;-46.3600;-6.7700
1235.6420;-53.0500;-46.2900;-6.7600
1235.8410;-52.9000;-46.1900;-6.7100
1236.0400;-52.7700;-46.1100;-6.6600
1236.2390;-52.6400;-46.0200;-6.6200
1236.4380;-52.5000;-45.9100;-6.5900
1236.6370;-52.3400;-45.8300;-6.5100
1236.8360;-52.1700;-45.7400;-6.4300
1237.0350;-52.0500;-45.6700;-6.3800
1237.2350;-51.8700;-45.5700;-6.3000
1237.4340;-51.6900;-45.4700;-6.2200
1237.6330;-51.5500;-45.3900;-6.1600
1237.8320;-51.4200;-45.3100;-6.1100
1238.0310;-51.2700;-45.2400;-6.0300
1238.2300;-51.1200;-45.1500;-5.9700
1238.4290;-51.0100;-45.0700;-5.9400
1238.6280;-50.9200;-45.0000;-5.9200
1238.8270;-50.8000;-44.9100;-5.8900
1239.0270;-50.7300;-44.8500;-5.8800
1239.2260;-50.6600;-44.7500;-5.9100
1239.4250;-50.6000;-44.6700;-5.9300
1239.6240;-50.5500;-44.6000;-5.9500
1239.8230;-50.4900;-44.5100;-5.9800
1240.0220;-50.4900;-44.4400;-6.0500
1240.2210;-50.4400;-44.3400;-6.1000
1240.4200;-50.3800;-44.2500;-6.1300
1240.6200;-50.3600;-44.1600;-6.2000
1240.8190;-50.3100;-44.0600;-6.2500
1241.0180;-50.2400;-43.9600;-6.2800
1241.2170;-50.1500;-43.8500;-6.3000
1241.4160;-50.0800;-43.7400;-6.3400
1241.6150;-49.9800;-43.6200;-6.3600
1241.8140;-49.8600;-43.5000;-6.3600
1242.0130;-49.7400;-43.4000;-6.3400
1242.2120;-49.6000;-43.2700;-6.3300
1242.4120;-49.4500;-43.1500;-6.3000
1242.6110;-49.2700;-43.0300;-6.2400
1242.8100;-49.1000;-42.9000;-6.2000
1243.0090;-48.9300;-42.7800;-6.1500
1243.2080;-48.7200;-42.6500;-6.0700
1243.4070;-48.5200;-42.5300;-5.9900
1243.6060;-48.3100;-42.4000;-5.9100
1243.8050;-48.1200;-42.2800;-5.8400
1244.0040;-47.9000;-42.1600;-5.7400
1244.2040;-47.6800;-42.0300;-5.6500
1244.4030;-47.4900;-41.9100;-5.5800
1244.6020;-47.2800;-41.7900;-5.4900
1244.8010;-47.0800;-41.6700;-5.4100
1245.0000;-46.9000;-41.5700;-5.3300
1245.1990;-46.7300;-41.4400;-5.2900
1245.3980;-46.5600;-41.3300;-5.2300
1245.5970;-46.4000;-41.2000;-5.2000
1245.7970;-46.2600;-41.0800;-5.1800
1245.9960;-46.1500;-40.9700;-5.1800
1246.1950;-46.0300;-40.8400;-5.1900
1246.3940;-45.9400;-40.7200;-5.2200
1246.5930;-45.8600;-40.5800;-5.2800
1246.7920;-45.8200;-40.4600;-5.3600
1246.9910;-45.7700;-40.3300;-5.4400
1247.1900;-45.7400;-40.1900;-5.5500
1247.3890;-45.7400;-40.0500;-5.6900
1247.5890;-45.7200;-39.9100;-5.8100
1247.7880;-45.7200;-39.7700;-5.9500
1247.9870;-45.7300;-39.6400;-6.0900
1248.1860;-45.7300;-39.4900;-6.2400
1248.3850;-45.7500;-39.3500;-6.4000
1248.5840;-45.7200;-39.2000;-6.5200
1248.7830;-45.7000;-39.0500;-6.6500
1248.9820;-45.6600;-38.9300;-6.7300
1249.1810;-45.5800;-38.7700;-6.8100
1249.3810;-45.5000;-38.6400;-6.8600
1249.5800;-45.3400;-38.5000;-6.8400
1249.7790;-45.1700;-38.3600;-6.8100
1249.9780;-44.9500;-38.2200;-6.7300
1250.1770;-44.6900;-38.0800;-6.6100
1250.3760;-44.4100;-37.9500;-6.4600
1250.5750;-44.0700;-37.8100;-6.2600
1250.7740;-43.7100;-37.6800;-6.0300
1250.9740;-43.3500;-37.5700;-5.7800
1251.1730;-42.9500;-37.4300;-5.5200
1251.3720;-42.5600;-37.3000;-5.2600
1251.5710;-42.1500;-37.1800;-4.9700
1251.7700;-41.7400;-37.0400;-4.7000
1251.9690;-41.3400;-36.9200;-4.4200
1252.1680;-40.9400;-36.7700;-4.1700
1252.3670;-40.5700;-36.6500;-3.9200
1252.5660;-40.2000;-36.5200;-3.6800
1252.7660;-39.8500;-36.3800;-3.4700
1252.9650;-39.5200;-36.2600;-3.2600
1253.1640;-39.2100;-36.1100;-3.1000
1253.3630;-38.9300;-35.9700;-2.9600
1253.5620;-38.6600;-35.8000;-2.8600
1253.7610;-38.4100;-35.6900;-2.7200
1253.9600;-38.1900;-35.5400;-2.6500
1254.1590;-37.9800;-35.4000;-2.5800
1254.3580;-37.8100;-35.2500;-2.5600
1254.5580;-37.6500;-35.1100;-2.5400
1254.7570;-37.5200;-34.9700;-2.5500
1254.9560;-37.3800;-34.8100;-2.5700
1255.1550;-37.2900;-34.6700;-2.6200
1255.3540;-37.2100;-34.5400;-2.6700
1255.5530;-37.1400;-34.4000;-2.7400
1255.7520;-37.0900;-34.2700;-2.8200
1255.9510;-37.0400;-34.1200;-2.9200
1256.1500;-37.0100;-34.0000;-3.0100
1256.3500;-37.0000;-33.8600;-3.1400
1256.5490;-36.9800;-33.7300;-3.2500
1256.7480;-36.9700;-33.6200;-3.3500
1256.9470;-36.9500;-33.4700;-3.4800
1257.1460;-36.9200;-33.3500;-3.5700
1257.3450;-36.8900;-33.2300;-3.6600
1257.5440;-36.8500;-33.1000;-3.7500
1257.7430;-36.7900;-32.9900;-3.8000
1257.9430;-36.6900;-32.8400;-3.8500
1258.1420;-36.5900;-32.7300;-3.8600
1258.3410;-36.4500;-32.5900;-3.8600
1258.5400;-36.2900;-32.4700;-3.8200
1258.7390;-36.1000;-32.3500;-3.7500
1258.9380;-35.8300;-32.2000;-3.6300
1259.1370;-35.6500;-32.0800;-3.5700
1259.3360;-35.3800;-31.9300;-3.4500
1259.5350;-35.1200;-31.8000;-3.3200
1259.7350;-34.8300;-31.6700;-3.1600
1259.9340;-34.5300;-31.5200;-3.0100
1260.1330;-34.2600;-31.4000;-2.8600
1260.3320;-33.9500;-31.2600;-2.6900
1260.5310;-33.6800;-31.1300;-2.5500
1260.7300;-33.4000;-31.0000;-2.4000
1260.9290;-33.1300;-30.8600;-2.2700
1261.1280;-32.8900;-30.7300;-2.1600
1261.3270;-32.6400;-30.5900;-2.0500
1261.5270;-32.4400;-30.4700;-1.9700
1261.7260;-32.2400;-30.3500;-1.8900
1261.9250;-32.0600;-30.2100;-1.8500
1262.1240;-31.9200;-30.0900;-1.8300
1262.3230;-31.7800;-29.9600;-1.8200
1262.5220;-31.7000;-29.8500;-1.8500
1262.7210;-31.6200;-29.7300;-1.8900
1262.9200;-31.5700;-29.6000;-1.9700
1263.1200;-31.5600;-29.4800;-2.0800
1263.3190;-31.5700;-29.3500;-2.2200
1263.5180;-31.6200;-29.2300;-2.3900
1263.7170;-31.6900;-29.1200;-2.5700
1263.9160;-31.8000;-28.9900;-2.8100
1264.1150;-31.9500;-28.8700;-3.0800
1264.3140;-32.1200;-28.7400;-3.3800
1264.5130;-32.3500;-28.6200;-3.7300
1264.7120;-32.5900;-28.5000;-4.0900
1264.9120;-32.8600;-28.3600;-4.5000
1265.1110;-33.1800;-28.2400;-4.9400
1265.3100;-33.5100;-28.1000;-5.4100
1265.5090;-33.8900;-27.9900;-5.9000
1265.7080;-34.2400;-27.8600;-6.3800
1265.9070;-34.6000;-27.7300;-6.8700
1266.1060;-34.9400;-27.6100;-7.3300
1266.3050;-35.2000;-27.4800;-7.7200
1266.5040;-35.4000;-27.3700;-8.0300
1266.7040;-35.4500;-27.2500;-8.2000
1266.9030;-35.3700;-27.1200;-8.2500
1267.1020;-35.1600;-27.0200;-8.1400
1267.3010;-34.7900;-26.8900;-7.9000
1267.5000;-34.3300;-26.7900;-7.5400
1267.6990;-33.7700;-26.6800;-7.0900
1267.8980;-33.1600;-26.5600;-6.6000
1268.0970;-32.5400;-26.4700;-6.0700
1268.2970;-31.9000;-26.3400;-5.5600
1268.4960;-31.3000;-26.2500;-5.0500
1268.6950;-30.6900;-26.1300;-4.5600
1268.8940;-30.1200;-26.0100;-4.1100
1269.0930;-29.5800;-25.9100;-3.6700
1269.2920;-29.0700;-25.8000;-3.2700
1269.4910;-28.6200;-25.7100;-2.9100
1269.6900;-28.1800;-25.5900;-2.5900
1269.8890;-27.7900;-25.4900;-2.3000
1270.0890;-27.4400;-25.3700;-2.0700
1270.2880;-27.1200;-25.2600;-1.8600
1270.4870;-26.8500;-25.1700;-1.6800
1270.6860;-26.5800;-25.0500;-1.5300
1270.8850;-26.3600;-24.9400;-1.4200
1271.0840;-26.1800;-24.8200;-1.3600
1271.2830;-26.0000;-24.7200;-1.2800
1271.4820;-25.9000;-24.6200;-1.2800
1271.6810;-25.8000;-24.5000;-1.3000
1271.8810;-25.7500;-24.4100;-1.3400
1272.0800;-25.7000;-24.2900;-1.4100
1272.2790;-25.6900;-24.1900;-1.5000
1272.4780;-25.7100;-24.0900;-1.6200
1272.6770;-25.7500;-23.9900;-1.7600
1272.8760;-25.8300;-23.9000;-1.9300
1273.0750;-25.9100;-23.7900;-2.1200
1273.2740;-26.0300;-23.7000;-2.3300
1273.4740;-26.1500;-23.6100;-2.5400
1273.6730;-26.3000;-23.5100;-2.7900
1273.8720;-26.4700;-23.4200;-3.0500
1274.0710;-26.6300;-23.3200;-3.3100
1274.2700;-26.8100;-23.2300;-3.5800
1274.4690;-26.9700;-23.1500;-3.8200
1274.6680;-27.1200;-23.0500;-4.0700
1274.8670;-27.2700;-22.9700;-4.3000
1275.0660;-27.3700;-22.8700;-4.5000
1275.2660;-27.4400;-22.7700;-4.6700
1275.4650;-27.4600;-22.6800;-4.7800
1275.6640;-27.4300;-22.5800;-4.8500
1275.8630;-27.3500;-22.5000;-4.8500
1276.0620;-27.2000;-22.3900;-4.8100
1276.2610;-27.0300;-22.3000;-4.7300
1276.4600;-26.7800;-22.2100;-4.5700
1276.6590;-26.5200;-22.1000;-4.4200
1276.8580;-26.2300;-22.0200;-4.2100
1277.0580;-25.9200;-21.9200;-4.0000
1277.2570;-25.6100;-21.8300;-3.7800
1277.4560;-25.2900;-21.7400;-3.5500
1277.6550;-24.9800;-21.6500;-3.3300
1277.8540;-24.6800;-21.5700;-3.1100
1278.0530;-24.3900;-21.4700;-2.9200
1278.2520;-24.1400;-21.3900;-2.7500
1278.4510;-23.8900;-21.3000;-2.5900
1278.6500;-23.6700;-21.2200;-2.4500
1278.8500;-23.4700;-21.1400;-2.3300
1279.0490;-23.3000;-21.0500;-2.2500
1279.2480;-23.1800;-20.9800;-2.2000
1279.4470;-23.0600;-20.8900;-2.1700
1279.6460;-23.0000;-20.8100;-2.1900
1279.8450;-22.9600;-20.7400;-2.2200
1280.0440;-22.9600;-20.6500;-2.3100
1280.2430;-23.0000;-20.5900;-2.4100
1280.4430;-23.0600;-20.5000;-2.5600
1280.6420;-23.1900;-20.4300;-2.7600
1280.8410;-23.3300;-20.3500;-2.9800
1281.0400;-23.5200;-20.2700;-3.2500
1281.2390;-23.7700;-20.2000;-3.5700
1281.4380;-24.0600;-20.1200;-3.9400
1281.6370;-24.4000;-20.0500;-4.3500
1281.8360;-24.7800;-19.9700;-4.8100
1282.0350;-25.2100;-19.8900;-5.3200
1282.2350;-25.7000;-19.8300;-5.8700
1282.4340;-26.2300;-19.7400;-6.4900
1282.6330;-26.8100;-19.6800;-7.1300
1282.8320;-27.3900;-19.6100;-7.7800
1283.0310;-27.9700;-19.5300;-8.4400
1283.2300;-28.5800;-19.4700;-9.1100
1283.4290;-28.8800;-19.4000;-9.4800
1283.6280;-29.0800;-19.3300;-9.7500
1283.8270;-29.0300;-19.2600;-9.7700
1284.0270;-28.7200;-19.1900;-9.5300
1284.2260;-28.1600;-19.1300;-9.0300
1284.4250;-27.4500;-19.0600;-8.3900
1284.6240;-26.6500;-19.0000;-7.6500
1284.8230;-25.6800;-18.9300;-6.7500
1285.0220;-25.0000;-18.8600;-6.1400
1285.2210;-24.2000;-18.8000;-5.4000
1285.4200;-23.4700;-18.7300;-4.7400
1285.6200;-22.7500;-18.6700;-4.0800
1285.8190;-22.1100;-18.5900;-3.5200
1286.0180;-21.5100;-18.5300;-2.9800
1286.2170;-20.9600;-18.4700;-2.4900
1286.4160;-20.4800;-18.3900;-2.0900
1286.6150;-20.0300;-18.3400;-1.6900
1286.8140;-19.6300;-18.2700;-1.3600
1287.0130;-19.2700;-18.2000;-1.0700
1287.2120;-18.9500;-18.1400;-0.8100
1287.4120;-18.6800;-18.0700;-0.6100
1287.6110;-18.4400;-18.0200;-0.4200
1287.8100;-18.2500;-17.9400;-0.3100
1288.0090;-18.0900;-17.8900;-0.2000
1288.2080;-17.9700;-17.8200;-0.1500
1288.4070;-17.9000;-17.7600;-0.1400
1288.6060;-17.8500;-17.7100;-0.1400
1288.8050;-17.8600;-17.6500;-0.2100
1289.0040;-17.8900;-17.6000;-0.2900
1289.2040;-17.9700;-17.5300;-0.4400
1289.4030;-18.0900;-17.4800;-0.6100
1289.6020;-18.2400;-17.4400;-0.8000
1289.8010;-18.4500;-17.3800;-1.0700
1290.0000;-18.6900;-17.3400;-1.3500
1290.1990;-18.9900;-17.2800;-1.7100
1290.3980;-19.3400;-17.2300;-2.1100
1290.5970;-19.7500;-17.2000;-2.5500
1290.7970;-20.2300;-17.1400;-3.0900
1290.9960;-20.7300;-17.1000;-3.6300
1291.1950;-21.3200;-17.0400;-4.2800
1291.3940;-21.9700;-17.0000;-4.9700
1291.5930;-22.6800;-16.9400;-5.7400
1291.7920;-23.4600;-16.9000;-6.5600
1291.9910;-24.2600;-16.8600;-7.4000
1292.1900;-25.0800;-16.8000;-8.2800
1292.3890;-25.8200;-16.7600;-9.0600
1292.5890;-26.3800;-16.7100;-9.6700
1292.7880;-26.6800;-16.6600;-10.0200
1292.9870;-26.6000;-16.6300;-9.9700
1293.1860;-26.1800;-16.5700;-9.6100
1293.3850;-25.4800;-16.5400;-8.9400
1293.5840;-24.6300;-16.4800;-8.1500
1293.7830;-23.7500;-16.4400;-7.3100
1293.9820;-22.8600;-16.4100;-6.4500
1294.1810;-22.0400;-16.3600;-5.6800
1294.3810;-21.2500;-16.3400;-4.9100
1294.5800;-20.5200;-16.2700;-4.2500
1294.7790;-19.8700;-16.2400;-3.6300
1294.9780;-19.2700;-16.2000;-3.0700
1295.1770;-18.7500;-16.1600;-2.5900
1295.3760;-18.2700;-16.1300;-2.1400
1295.5750;-17.8400;-16.0800;-1.7600
1295.7740;-17.4700;-16.0600;-1.4100
1295.9740;-17.1400;-16.0000;-1.1400
1296.1730;-16.8700;-15.9700;-0.9000
1296.3720;-16.6300;-15.9300;-0.7000
1296.5710;-16.4500;-15.8900;-0.5600
1296.7700;-16.2900;-15.8700;-0.4200
1296.9690;-16.1900;-15.8200;-0.3700
1297.1680;-16.1300;-15.8000;-0.3300
1297.3670;-16.1000;-15.7500;-0.3500
1297.5660;-16.1200;-15.7200;-0.4000
1297.7660;-16.1800;-15.6900;-0.4900
1297.9650;-16.2900;-15.6600;-0.6300
1298.1640;-16.4200;-15.6400;-0.7800
1298.3630;-16.6000;-15.6000;-1.0000
1298.5620;-16.8300;-15.5600;-1.2700
1298.7610;-17.1100;-15.5400;-1.5700
1298.9600;-17.4500;-15.5100;-1.9400
1299.1590;-17.8200;-15.5000;-2.3200
1299.3580;-18.3900;-15.4600;-2.9300
1299.5580;-18.8000;-15.4300;-3.3700
1299.7570;-19.3900;-15.4000;-3.9900
1299.9560;-20.0700;-15.3800;-4.6900
1300.1550;-20.8400;-15.3700;-5.4700
1300.3540;-21.7400;-15.3300;-6.4100
1300.5530;-22.7400;-15.3100;-7.4300
1300.7520;-23.9300;-15.2800;-8.6500
1300.9510;-25.2900;-15.2600;-10.0300
1301.1500;-26.8800;-15.2500;-11.6300
1301.3500;-29.0200;-15.2200;-13.8000
1301.5490;-30.3800;-15.2200;-15.1600
1301.7480;-31.4400;-15.1900;-16.2500
1301.9470;-31.1500;-15.1700;-15.9800
1302.1460;-29.7500;-15.1700;-14.5800
1302.3450;-27.9400;-15.1500;-12.7900
1302.5440;-26.2400;-15.1500;-11.0900
1302.7430;-24.4900;-15.1200;-9.3700
1302.9430;-23.3900;-15.1000;-8.2900
1303.1420;-22.2900;-15.1000;-7.1900
1303.3410;-21.2900;-15.0800;-6.2100
1303.5400;-20.4400;-15.0900;-5.3500
1303.7390;-19.6800;-15.0700;-4.6100
1303.9380;-19.0200;-15.0600;-3.9600
1304.1370;-18.4600;-15.0600;-3.4000
1304.3360;-17.9500;-15.0500;-2.9000
1304.5350;-17.5200;-15.0600;-2.4600
1304.7350;-17.1300;-15.0600;-2.0700
1304.9340;-16.8000;-15.0600;-1.7400
1305.1330;-16.5400;-15.0600;-1.4800
1305.3320;-16.3100;-15.0600;-1.2500
1305.5310;-16.1200;-15.0800;-1.0400
1305.7300;-16.0100;-15.0800;-0.9300
1305.9290;-15.9200;-15.0900;-0.8300
1306.1280;-15.8800;-15.1000;-0.7800
1306.3270;-15.8800;-15.1100;-0.7700
1306.5270;-15.9400;-15.1400;-0.8000
1306.7260;-16.0200;-15.1400;-0.8800
1306.9250;-16.1500;-15.1700;-0.9800
1307.1240;-16.3300;-15.1700;-1.1600
1307.3230;-16.5500;-15.1900;-1.3600
1307.5220;-16.8400;-15.2100;-1.6300
1307.7210;-17.1600;-15.2300;-1.9300
1307.9200;-17.5500;-15.2600;-2.2900
1308.1200;-17.9900;-15.2700;-2.7200
1308.3190;-18.6200;-15.2900;-3.3300
1308.5180;-19.0900;-15.3200;-3.7700
1308.7170;-19.7500;-15.3400;-4.4100
1308.9160;-20.5000;-15.3700;-5.1300
1309.1150;-21.3600;-15.3800;-5.9800
1309.3140;-22.3500;-15.4100;-6.9400
1309.5130;-23.4800;-15.4300;-8.0500
1309.7120;-24.7600;-15.4500;-9.3100
1309.9120;-26.2400;-15.4800;-10.7600
