Wavelength;Intensity_Meas;Intensity_Ref;Difference_dB
1200.0000;-60.8900;-55.6000;-5.2900
1200.1990;-60.8000;-55.5600;-5.2400
1200.3980;-60.7900;-55.5400;-5.2500
1200.5970;-60.7800;-55.5000;-5.2800
1200.7970;-60.7700;-55.4800;-5.2900
1200.9960;-60.6500;-55.4400;-5.2100
1201.1950;-60.5900;-55.3900;-5.2000
1201.3940;-60.6100;-55.3500;-5.2600
1201.5930;-60.5800;-55.3200;-5.2600
1201.7920;-60.4700;-55.2800;-5.1900
1201.9910;-60.3600;-55.2100;-5.1500
1202.1900;-60.3200;-55.1600;-5.1600
1202.3890;-60.3000;-55.1100;-5.1900
1202.5890;-60.1700;-55.0800;-5.0900
1202.7880;-60.0800;-55.0100;-5.0700
1202.9870;-60.0100;-54.9400;-5.0700
1203.1860;-59.9700;-54.8900;-5.0800
1203.3850;-59.9000;-54.8700;-5.0300
1203.5840;-59.7800;-54.8100;-4.9700
1203.7830;-59.7000;-54.7500;-4.9500
1203.9820;-59.6800;-54.7200;-4.9600
1204.1810;-59.6300;-54.6800;-4.9500
1204.3810;-59.5500;-54.6400;-4.9100
1204.5800;-59.4800;-54.6000;-4.8800
1204.7790;-59.5200;-54.5800;-4.9400
1204.9780;-59.5300;-54.5500;-4.9800
1205.1770;-59.5000;-54.5100;-4.9900
1205.3760;-59.4900;-54.4800;-5.0100
1205.5750;-59.5300;-54.4600;-5.0700
1205.7740;-59.5700;-54.4400;-5.1300
1205.9740;-59.5900;-54.4400;-5.1500
1206.1730;-59.5600;-54.4100;-5.1500
1206.3720;-59.5900;-54.3800;-5.2100
1206.5710;-59.6400;-54.3500;-5.2900
1206.7700;-59.6400;-54.3400;-5.3000
1206.9690;-59.5900;-54.3100;-5.2800
1207.1680;-59.5700;-54.2700;-5.3000
1207.3670;-59.6500;-54.2400;-5.4100
1207.5660;-59.6300;-54.2200;-5.4100
1207.7660;-59.5600;-54.1900;-5.3700
1207.9650;-59.5300;-54.1500;-5.3800
1208.1640;-59.5500;-54.0900;-5.4600
1208.3630;-59.5300;-54.0700;-5.4600
1208.5620;-59.4400;-54.0300;-5.4100
1208.7610;-59.3800;-53.9700;-5.4100
1208.9600;-59.4000;-53.9200;-5.4800
1209.1590;-59.3500;-53.8600;-5.4900
1209.3580;-59.2800;-53.8200;-5.4600
1209.5580;-59.2000;-53.7600;-5.4400
1209.7570;-59.1600;-53.7100;-5.4500
1209.9560;-59.1600;-53.6500;-5.5100
1210.1550;-59.0700;-53.6100;-5.4600
1210.3540;-58.9300;-53.5700;-5.3600
1210.5530;-58.8700;-53.4900;-5.3800
1210.7520;-58.8300;-53.4400;-5.3900
1210.9510;-58.7700;-53.4100;-5.3600
1211.1500;-58.6300;-53.3500;-5.2800
1211.3500;-58.5400;-53.3100;-5.2300
1211.5490;-58.5300;-53.2600;-5.2700
1211.7480;-58.4600;-53.2300;-5.2300
1211.9470;-58.3400;-53.2100;-5.1300
1212.1460;-58.2600;-53.1600;-5.1000
1212.3450;-58.2700;-53.1200;-5.1500
1212.5440;-58.2500;-53.1000;-5.1500
1212.7430;-58.1600;-53.0700;-5.0900
1212.9430;-58.1200;-53.0300;-5.0900
1213.1420;-58.1500;-52.9900;-5.1600
1213.3410;-58.1500;-52.9800;-5.1700
1213.5400;-58.0900;-52.9500;-5.1400
1213.7390;-58.0400;-52.9000;-5.1400
1213.9380;-58.0700;-52.8700;-5.2000
1214.1370;-58.0900;-52.8300;-5.2600
1214.3360;-58.0500;-52.8000;-5.2500
1214.5350;-58.0000;-52.7600;-5.2400
1214.7350;-58.0100;-52.7100;-5.3000
1214.9340;-58.0400;-52.6600;-5.3800
1215.1330;-57.9800;-52.6200;-5.3600
1215.3320;-57.9400;-52.5800;-5.3600
1215.5310;-57.9300;-52.5100;-5.4200
1215.7300;-57.9700;-52.4500;-5.5200
1215.9290;-57.9400;-52.4200;-5.5200
1216.1280;-57.8600;-52.3500;-5.5100
1216.3270;-57.8600;-52.2900;-5.5700
1216.5270;-57.9000;-52.2300;-5.6700
1216.7260;-57.8500;-52.1700;-5.6800
1216.9250;-57.7700;-52.1200;-5.6500
1217.1240;-57.7300;-52.0500;-5.6800
1217.3230;-57.7400;-52.0000;-5.7400
1217.5220;-57.6800;-51.9400;-5.7400
1217.7210;-57.5800;-51.8900;-5.6900
1217.9200;-57.4900;-51.8400;-5.6500
1218.1200;-57.4400;-51.7700;-5.6700
1218.3190;-57.3700;-51.7400;-5.6300
1218.5180;-57.2300;-51.6900;-5.5400
1218.7170;-57.1000;-51.6500;-5.4500
1218.9160;-57.0300;-51.6100;-5.4200
1219.1150;-56.9400;-51.5600;-5.3800
1219.3140;-56.8000;-51.5400;-5.2600
1219.5130;-56.6800;-51.5000;-5.1800
1219.7120;-56.6000;-51.4500;-5.1500
1219.9120;-56.5400;-51.4200;-5.1200
1220.1110;-56.4000;-51.3900;-5.0100
1220.3100;-56.2900;-51.3500;-4.9400
1220.5090;-56.2200;-51.3000;-4.9200
1220.7080;-56.1700;-51.2600;-4.9100
1220.9070;-56.0700;-51.2200;-4.8500
1221.1060;-55.9400;-51.1600;-4.7800
1221.3050;-55.8800;-51.1200;-4.7600
1221.5040;-55.8400;-51.0400;-4.8000
1221.7040;-55.7600;-50.9900;-4.7700
1221.9030;-55.6500;-50.9400;-4.7100
1222.1020;-55.6000;-50.8600;-4.7400
1222.3010;-55.5700;-50.8100;-4.7600
1222.5000;-55.4800;-50.7300;-4.7500
1222.6990;-55.4100;-50.6700;-4.7400
1222.8980;-55.3800;-50.5900;-4.7900
1223.0970;-55.3600;-50.5100;-4.8500
1223.2970;-55.3200;-50.4600;-4.8600
1223.4960;-55.2500;-50.3700;-4.8800
1223.6950;-55.2700;-50.3000;-4.9700
1223.8940;-55.2900;-50.2400;-5.0500
1224.0930;-55.2900;-50.1600;-5.1300
1224.2920;-55.2800;-50.1100;-5.1700
1224.4910;-55.3100;-50.0200;-5.2900
1224.6900;-55.3900;-49.9600;-5.4300
1224.8890;-55.3900;-49.9000;-5.4900
1225.0890;-55.3900;-49.8400;-5.5500
1225.2880;-55.4400;-49.7800;-5.6600
1225.4870;-55.4800;-49.7100;-5.7700
1225.6860;-55.4900;-49.6600;-5.8300
1225.8850;-55.4700;-49.6200;-5.8500
1226.0840;-55.4600;-49.5500;-5.9100
1226.2830;-55.4800;-49.5100;-5.9700
1226.4820;-55.4200;-49.4400;-5.9800
1226.6810;-55.3500;-49.4000;-5.9500
1226.8810;-55.2800;-49.3500;-5.9300
1227.0800;-55.2300;-49.2800;-5.9500
1227.2790;-55.1300;-49.2400;-5.8900
1227.4780;-54.9900;-49.1700;-5.8200
1227.6770;-54.9000;-49.1100;-5.7900
1227.8760;-54.7900;-49.0500;-5.7400
1228.0750;-54.6400;-48.9800;-5.6600
1228.2740;-54.4900;-48.9200;-5.5700
1228.4740;-54.3400;-48.8400;-5.5000
1228.6730;-54.2300;-48.7700;-5.4600
1228.8720;-54.0600;-48.7000;-5.3600
1229.0710;-53.8800;-48.6200;-5.2600
1229.2700;-53.7600;-48.5500;-5.2100
1229.4690;-53.6000;-48.4500;-5.1500
1229.6680;-53.4400;-48.3800;-5.0600
1229.8670;-53.2700;-48.3000;-4.9700
1230.0660;-53.1300;-48.2100;-4.9200
1230.2660;-53.0200;-48.1300;-4.8900
1230.4650;-52.8600;-48.0400;-4.8200
1230.6640;-52.7300;-47.9600;-4.7700
1230.8630;-52.6600;-47.8900;-4.7700
1231.0620;-52.5800;-47.8100;-4.7700
1231.2610;-52.5000;-47.7600;-4.7400
1231.4600;-52.4300;-47.6800;-4.7500
1231.6590;-52.4100;-47.6200;-4.7900
1231.8580;-52.3900;-47.5500;-4.8400
1232.0580;-52.3600;-47.5000;-4.8600
1232.2570;-52.3600;-47.4400;-4.9200
1232.4560;-52.3900;-47.3700;-5.0200
1232.6550;-52.4200;-47.3200;-5.1000
1232.8540;-52.4100;-47.2500;-5.1600
1233.0530;-52.4500;-47.2000;-5.2500
1233.2520;-52.5200;-47.1500;-5.3700
1233.4510;-52.5200;-47.0700;-5.4500
1233.6500;-52.5400;-47.0300;-5.5100
1233.8500;-52.5700;-46.9500;-5.6200
1234.0490;-52.6100;-46.8900;-5.7200
1234.2480;-52.6200;-46.8300;-5.7900
1234.4470;-52.5800;-46.7500;-5.8300
1234.6460;-52.6000;-46.6900;-5.9100
1234.8450;-52.6000;-46.6100;-5.9900
1235.0440;-52.5400;-46.5300;-6.0100
1235.2430;-52.5100;-46.4600;-6.0500
1235.4430;-52.4600;-46.3600;-6.1000
1235.6420;-52.4200;-46.2900;-6.1300
1235.8410;-52.3200;-46.1900;-6.1300
1236.0400;-52.2300;-46.1100;-6.1200
1236.2390;-52.1600;-46.0200;-6.1400
1236.4380;-52.0500;-45.9100;-6.1400
1236.6370;-51.9300;-45.8300;-6.1000
1236.8360;-51.8000;-45.7400;-6.0600
1237.0350;-51.6900;-45.6700;-6.0200
1237.2350;-51.5700;-45.5700;-6.0000
1237.4340;-51.4000;-45.4700;-5.9300
1237.6330;-51.2900;-45.3900;-5.9000
1237.8320;-51.1700;-45.3100;-5.8600
1238.0310;-51.0300;-45.2400;-5.7900
1238.2300;-50.9200;-45.1500;-5.7700
1238.4290;-50.8200;-45.0700;-5.7500
1238.6280;-50.7500;-45.0000;-5.7500
1238.8270;-50.6400;-44.9100;-5.7300
1239.0270;-50.5600;-44.8500;-5.7100
1239.2260;-50.5200;-44.7500;-5.7700
1239.4250;-50.4700;-44.6700;-5.8000
1239.6240;-50.4200;-44.6000;-5.8200
1239.8230;-50.3600;-44.5100;-5.8500
1240.0220;-50.3400;-44.4400;-5.9000
1240.2210;-50.3100;-44.3400;-5.9700
1240.4200;-50.2400;-44.2500;-5.9900
1240.6200;-50.2100;-44.1600;-6.0500
1240.8190;-50.1500;-44.0600;-6.0900
1241.0180;-50.0600;-43.9600;-6.1000
1241.2170;-49.9600;-43.8500;-6.1100
1241.4160;-49.8600;-43.7400;-6.1200
1241.6150;-49.7500;-43.6200;-6.1300
1241.8140;-49.6000;-43.5000;-6.1000
1242.0130;-49.4600;-43.4000;-6.0600
1242.2120;-49.3200;-43.2700;-6.0500
1242.4120;-49.1500;-43.1500;-6.0000
1242.6110;-48.9800;-43.0300;-5.9500
1242.8100;-48.7900;-42.9000;-5.8900
1243.0090;-48.6200;-42.7800;-5.8400
1243.2080;-48.4400;-42.6500;-5.7900
1243.4070;-48.2400;-42.5300;-5.7100
1243.6060;-48.0700;-42.4000;-5.6700
1243.8050;-47.8800;-42.2800;-5.6000
1244.0040;-47.6800;-42.1600;-5.5200
1244.2040;-47.5000;-42.0300;-5.4700
1244.4030;-47.3200;-41.9100;-5.4100
1244.6020;-47.1500;-41.7900;-5.3600
1244.8010;-46.9600;-41.6700;-5.2900
1245.0000;-46.8000;-41.5700;-5.2300
1245.1990;-46.6700;-41.4400;-5.2300
1245.3980;-46.5200;-41.3300;-5.1900
1245.5970;-46.4000;-41.2000;-5.2000
1245.7970;-46.2900;-41.0800;-5.2100
1245.9960;-46.2000;-40.9700;-5.2300
1246.1950;-46.1400;-40.8400;-5.3000
1246.3940;-46.0900;-40.7200;-5.3700
1246.5930;-46.0800;-40.5800;-5.5000
1246.7920;-46.0700;-40.4600;-5.6100
1246.9910;-46.0900;-40.3300;-5.7600
1247.1900;-46.1500;-40.1900;-5.9600
1247.3890;-46.2200;-40.0500;-6.1700
1247.5890;-46.3000;-39.9100;-6.3900
1247.7880;-46.3900;-39.7700;-6.6200
1247.9870;-46.5000;-39.6400;-6.8600
1248.1860;-46.6200;-39.4900;-7.1300
1248.3850;-46.7200;-39.3500;-7.3700
1248.5840;-46.8400;-39.2000;-7.6400
1248.7830;-46.9300;-39.0500;-7.8800
1248.9820;-47.0100;-38.9300;-8.0800
1249.1810;-47.0700;-38.7700;-8.3000
1249.3810;-47.0900;-38.6400;-8.4500
1249.5800;-47.0900;-38.5000;-8.5900
1249.7790;-47.0300;-38.3600;-8.6700
1249.9780;-46.9300;-38.2200;-8.7100
1250.1770;-46.8000;-38.0800;-8.7200
1250.3760;-46.6000;-37.9500;-8.6500
1250.5750;-46.3700;-37.8100;-8.5600
1250.7740;-46.0800;-37.6800;-8.4000
1250.9740;-45.7200;-37.5700;-8.1500
1251.1730;-45.4000;-37.4300;-7.9700
1251.3720;-45.0300;-37.3000;-7.7300
1251.5710;-44.6300;-37.1800;-7.4500
1251.7700;-44.2100;-37.0400;-7.1700
1251.9690;-43.8100;-36.9200;-6.8900
1252.1680;-43.3800;-36.7700;-6.6100
1252.3670;-42.9900;-36.6500;-6.3400
1252.5660;-42.6200;-36.5200;-6.1000
1252.7660;-42.2700;-36.3800;-5.8900
1252.9650;-41.9800;-36.2600;-5.7200
1253.1640;-41.6800;-36.1100;-5.5700
1253.3630;-41.4400;-35.9700;-5.4700
1253.5620;-41.2300;-35.8000;-5.4300
1253.7610;-41.0500;-35.6900;-5.3600
1253.9600;-40.9300;-35.5400;-5.3900
1254.1590;-40.8300;-35.4000;-5.4300
1254.3580;-40.7800;-35.2500;-5.5300
1254.5580;-40.7600;-35.1100;-5.6500
1254.7570;-40.7800;-34.9700;-5.8100
1254.9560;-40.8400;-34.8100;-6.0300
1255.1550;-40.9500;-34.6700;-6.2800
1255.3540;-41.0900;-34.5400;-6.5500
1255.5530;-41.2600;-34.4000;-6.8600
1255.7520;-41.4700;-34.2700;-7.2000
1255.9510;-41.7400;-34.1200;-7.6200
1256.1500;-42.0400;-34.0000;-8.0400
1256.3500;-42.3900;-33.8600;-8.5300
1256.5490;-42.7600;-33.7300;-9.0300
1256.7480;-43.1700;-33.6200;-9.5500
1256.9470;-43.6000;-33.4700;-10.1300
1257.1460;-44.0100;-33.3500;-10.6600
1257.3450;-44.4000;-33.2300;-11.1700
1257.5440;-44.6800;-33.1000;-11.5800
1257.7430;-44.8100;-32.9900;-11.8200
1257.9430;-44.7200;-32.8400;-11.8800
1258.1420;-44.4000;-32.7300;-11.6700
1258.3410;-43.8700;-32.5900;-11.2800
1258.5400;-43.1500;-32.4700;-10.6800
1258.7390;-42.3300;-32.3500;-9.9800
1258.9380;-41.4500;-32.2000;-9.2500
1259.1370;-40.5800;-32.0800;-8.5000
1259.3360;-39.7300;-31.9300;-7.8000
1259.5350;-38.9000;-31.8000;-7.1000
1259.7350;-38.1300;-31.6700;-6.4600
1259.9340;-37.3900;-31.5200;-5.8700
1260.1330;-36.7100;-31.4000;-5.3100
1260.3320;-36.0800;-31.2600;-4.8200
1260.5310;-35.3800;-31.1300;-4.2500
1260.7300;-34.9400;-31.0000;-3.9400
1260.9290;-34.4300;-30.8600;-3.5700
1261.1280;-33.9700;-30.7300;-3.2400
1261.3270;-33.5300;-30.5900;-2.9400
1261.5270;-33.1300;-30.4700;-2.6600
1261.7260;-32.7700;-30.3500;-2.4200
1261.9250;-32.4200;-30.2100;-2.2100
1262.1240;-32.1200;-30.0900;-2.0300
1262.3230;-31.8300;-29.9600;-1.8700
1262.5220;-31.5900;-29.8500;-1.7400
1262.7210;-31.3800;-29.7300;-1.6500
1262.9200;-31.1800;-29.6000;-1.5800
1263.1200;-31.0300;-29.4800;-1.5500
1263.3190;-30.8800;-29.3500;-1.5300
1263.5180;-30.7900;-29.2300;-1.5600
1263.7170;-30.7200;-29.1200;-1.6000
1263.9160;-30.6700;-28.9900;-1.6800
1264.1150;-30.6700;-28.8700;-1.8000
1264.3140;-30.6800;-28.7400;-1.9400
1264.5130;-30.7300;-28.6200;-2.1100
1264.7120;-30.8200;-28.5000;-2.3200
1264.9120;-30.9200;-28.3600;-2.5600
1265.1110;-31.0700;-28.2400;-2.8300
1265.3100;-31.2200;-28.1000;-3.1200
1265.5090;-31.4300;-27.9900;-3.4400
1265.7080;-31.6600;-27.8600;-3.8000
1265.9070;-31.9100;-27.7300;-4.1800
1266.1060;-32.2100;-27.6100;-4.6000
1266.3050;-32.5200;-27.4800;-5.0400
1266.5040;-32.8800;-27.3700;-5.5100
1266.7040;-33.2800;-27.2500;-6.0300
1266.9030;-33.7000;-27.1200;-6.5800
1267.1020;-34.1700;-27.0200;-7.1500
1267.3010;-34.6600;-26.8900;-7.7700
1267.5000;-35.2100;-26.7900;-8.4200
1267.6990;-35.7700;-26.6800;-9.0900
1267.8980;-36.3400;-26.5600;-9.7800
1268.0970;-36.9200;-26.4700;-10.4500
1268.2970;-37.4200;-26.3400;-11.0800
1268.4960;-37.8400;-26.2500;-11.5900
1268.6950;-38.1600;-26.1300;-12.0300
1268.8940;-38.2200;-26.0100;-12.2100
1269.0930;-38.1300;-25.9100;-12.2200
1269.2920;-37.8600;-25.8000;-12.0600
1269.4910;-37.4700;-25.7100;-11.7600
1269.6900;-36.9700;-25.5900;-11.3800
1269.8890;-36.4400;-25.4900;-10.9500
1270.0890;-35.8000;-25.3700;-10.4300
1270.2880;-35.3800;-25.2600;-10.1200
1270.4870;-34.9000;-25.1700;-9.7300
1270.6860;-34.4400;-25.0500;-9.3900
1270.8850;-34.0300;-24.9400;-9.0900
1271.0840;-33.6500;-24.8200;-8.8300
1271.2830;-33.3100;-24.7200;-8.5900
1271.4820;-33.0100;-24.6200;-8.3900
1271.6810;-32.7500;-24.5000;-8.2500
1271.8810;-32.5300;-24.4100;-8.1200
1272.0800;-32.3200;-24.2900;-8.0300
1272.2790;-32.1500;-24.1900;-7.9600
1272.4780;-32.0100;-24.0900;-7.9200
1272.6770;-31.9000;-23.9900;-7.9100
1272.8760;-31.8400;-23.9000;-7.9400
1273.0750;-31.7900;-23.7900;-8.0000
1273.2740;-31.7900;-23.7000;-8.0900
1273.4740;-31.8200;-23.6100;-8.2100
1273.6730;-31.8900;-23.5100;-8.3800
1273.8720;-32.0100;-23.4200;-8.5900
1274.0710;-32.1600;-23.3200;-8.8400
1274.2700;-32.3800;-23.2300;-9.1500
1274.4690;-32.6100;-23.1500;-9.4600
1274.6680;-32.8900;-23.0500;-9.8400
1274.8670;-33.2100;-22.9700;-10.2400
1275.0660;-33.5500;-22.8700;-10.6800
1275.2660;-33.9400;-22.7700;-11.1700
1275.4650;-34.3300;-22.6800;-11.6500
1275.6640;-34.7400;-22.5800;-12.1600
1275.8630;-35.1500;-22.5000;-12.6500
1276.0620;-35.5400;-22.3900;-13.1500
1276.2610;-35.9400;-22.3000;-13.6400
1276.4600;-36.2800;-22.2100;-14.0700
1276.6590;-36.5800;-22.1000;-14.4800
1276.8580;-36.8300;-22.0200;-14.8100
1277.0580;-37.0100;-21.9200;-15.0900
1277.2570;-37.1400;-21.8300;-15.3100
1277.4560;-37.1500;-21.7400;-15.4100
1277.6550;-37.1000;-21.6500;-15.4500
1277.8540;-36.9600;-21.5700;-15.3900
1278.0530;-36.7500;-21.4700;-15.2800
1278.2520;-36.4800;-21.3900;-15.0900
1278.4510;-36.1400;-21.3000;-14.8400
1278.6500;-35.7800;-21.2200;-14.5600
1278.8500;-35.3700;-21.1400;-14.2300
1279.0490;-34.9600;-21.0500;-13.9100
1279.2480;-34.5600;-20.9800;-13.5800
1279.4470;-34.1400;-20.8900;-13.2500
1279.6460;-33.7600;-20.8100;-12.9500
1279.8450;-33.3700;-20.7400;-12.6300
1280.0440;-33.0000;-20.6500;-12.3500
1280.2430;-32.6500;-20.5900;-12.0600
1280.4430;-32.2900;-20.5000;-11.7900
1280.6420;-31.9400;-20.4300;-11.5100
1280.8410;-31.5700;-20.3500;-11.2200
1281.0400;-31.2000;-20.2700;-10.9300
1281.2390;-30.8300;-20.2000;-10.6300
1281.4380;-30.4200;-20.1200;-10.3000
1281.6370;-30.0200;-20.0500;-9.9700
1281.8360;-29.5700;-19.9700;-9.6000
1282.0350;-29.1200;-19.8900;-9.2300
1282.2350;-28.6600;-19.8300;-8.8300
1282.4340;-28.1900;-19.7400;-8.4500
1282.6330;-27.7400;-19.6800;-8.0600
1282.8320;-27.2600;-19.6100;-7.6500
1283.0310;-26.8100;-19.5300;-7.2800
1283.2300;-26.3600;-19.4700;-6.8900
1283.4290;-25.8500;-19.4000;-6.4500
1283.6280;-25.4900;-19.3300;-6.1600
1283.8270;-25.0800;-19.2600;-5.8200
1284.0270;-24.7000;-19.1900;-5.5100
1284.2260;-24.3100;-19.1300;-5.1800
1284.4250;-23.9500;-19.0600;-4.8900
1284.6240;-23.5900;-19.0000;-4.5900
1284.8230;-23.2500;-18.9300;-4.3200
1285.0220;-22.9500;-18.8600;-4.0900
1285.2210;-22.6300;-18.8000;-3.8300
1285.4200;-22.3600;-18.7300;-3.6300
1285.6200;-22.0900;-18.6700;-3.4200
1285.8190;-21.8400;-18.5900;-3.2500
1286.0180;-21.6300;-18.5300;-3.1000
1286.2170;-21.4200;-18.4700;-2.9500
1286.4160;-21.2500;-18.3900;-2.8600
1286.6150;-21.0900;-18.3400;-2.7500
1286.8140;-20.9600;-18.2700;-2.6900
1287.0130;-20.8600;-18.2000;-2.6600
1287.2120;-20.7800;-18.1400;-2.6400
1287.4120;-20.7300;-18.0700;-2.6600
1287.6110;-20.6900;-18.0200;-2.6700
1287.8100;-20.6800;-17.9400;-2.7400
1288.0090;-20.7000;-17.8900;-2.8100
1288.2080;-20.7300;-17.8200;-2.9100
1288.4070;-20.8000;-17.7600;-3.0400
1288.6060;-20.8700;-17.7100;-3.1600
1288.8050;-20.9800;-17.6500;-3.3300
1289.0040;-21.1100;-17.6000;-3.5100
1289.2040;-21.2500;-17.5300;-3.7200
1289.4030;-21.4300;-17.4800;-3.9500
1289.6020;-21.6000;-17.4400;-4.1600
1289.8010;-21.8000;-17.3800;-4.4200
1290.0000;-22.0000;-17.3400;-4.6600
1290.1990;-22.2100;-17.2800;-4.9300
1290.3980;-22.4400;-17.2300;-5.2100
1290.5970;-22.6600;-17.2000;-5.4600
1290.7970;-22.8700;-17.1400;-5.7300
1290.9960;-23.0400;-17.1000;-5.9400
1291.1950;-23.1900;-17.0400;-6.1500
1291.3940;-23.3200;-17.0000;-6.3200
1291.5930;-23.3700;-16.9400;-6.4300
1291.7920;-23.3900;-16.9000;-6.4900
1291.9910;-23.3400;-16.8600;-6.4800
1292.1900;-23.2500;-16.8000;-6.4500
1292.3890;-23.1100;-16.7600;-6.3500
1292.5890;-22.8900;-16.7100;-6.1800
1292.7880;-22.6700;-16.6600;-6.0100
1292.9870;-22.4000;-16.6300;-5.7700
1293.1860;-22.1200;-16.5700;-5.5500
1293.3850;-21.8400;-16.5400;-5.3000
1293.5840;-21.5300;-16.4800;-5.0500
1293.7830;-21.2500;-16.4400;-4.8100
1293.9820;-20.9600;-16.4100;-4.5500
1294.1810;-20.7000;-16.3600;-4.3400
1294.3810;-20.4400;-16.3400;-4.1000
1294.5800;-20.1900;-16.2700;-3.9200
1294.7790;-19.9800;-16.2400;-3.7400
1294.9780;-19.7600;-16.2000;-3.5600
1295.1770;-19.5900;-16.1600;-3.4300
1295.3760;-19.4200;-16.1300;-3.2900
1295.5750;-19.2700;-16.0800;-3.1900
1295.7740;-19.1500;-16.0600;-3.0900
1295.9740;-19.0300;-16.0000;-3.0300
1296.1730;-18.9600;-15.9700;-2.9900
1296.3720;-18.8900;-15.9300;-2.9600
1296.5710;-18.8400;-15.8900;-2.9500
1296.7700;-18.8200;-15.8700;-2.9500
1296.9690;-18.8000;-15.8200;-2.9800
1297.1680;-18.8200;-15.8000;-3.0200
1297.3670;-18.8400;-15.7500;-3.0900
1297.5660;-18.8600;-15.7200;-3.1400
1297.7660;-18.9100;-15.6900;-3.2200
1297.9650;-18.9500;-15.6600;-3.2900
1298.1640;-19.0200;-15.6400;-3.3800
1298.3630;-19.0700;-15.6000;-3.4700
1298.5620;-19.1300;-15.5600;-3.5700
1298.7610;-19.1800;-15.5400;-3.6400
1298.9600;-19.2300;-15.5100;-3.7200
1299.1590;-19.2800;-15.5000;-3.7800
1299.3580;-19.3100;-15.4600;-3.8500
1299.5580;-19.3300;-15.4300;-3.9000
1299.7570;-19.3200;-15.4000;-3.9200
1299.9560;-19.3100;-15.3800;-3.9300
1300.1550;-19.2800;-15.3700;-3.9100
1300.3540;-19.2400;-15.3300;-3.9100
1300.5530;-19.1800;-15.3100;-3.8700
1300.7520;-19.0900;-15.2800;-3.8100
1300.9510;-19.0000;-15.2600;-3.7400
1301.1500;-18.9100;-15.2500;-3.6600
1301.3500;-18.8000;-15.2200;-3.5800
1301.5490;-18.7000;-15.2200;-3.4800
1301.7480;-18.5700;-15.1900;-3.3800
1301.9470;-18.4600;-15.1700;-3.2900
1302.1460;-18.3500;-15.1700;-3.1800
1302.3450;-18.2300;-15.1500;-3.0800
1302.5440;-18.1500;-15.1500;-3.0000
1302.7430;-18.0500;-15.1200;-2.9300
1302.9430;-17.9800;-15.1000;-2.8800
1303.1420;-17.9200;-15.1000;-2.8200
1303.3410;-17.8700;-15.0800;-2.7900
1303.5400;-17.8600;-15.0900;-2.7700
1303.7390;-17.8500;-15.0700;-2.7800
1303.9380;-17.8800;-15.0600;-2.8200
1304.1370;-17.9200;-15.0600;-2.8600
1304.3360;-17.9800;-15.0500;-2.9300
1304.5350;-18.0800;-15.0600;-3.0200
1304.7350;-18.1800;-15.0600;-3.1200
1304.9340;-18.3300;-15.0600;-3.2700
1305.1330;-18.4900;-15.0600;-3.4300
1305.3320;-18.6900;-15.0600;-3.6300
1305.5310;-18.9100;-15.0800;-3.8300
1305.7300;-19.1500;-15.0800;-4.0700
1305.9290;-19.4300;-15.0900;-4.3400
1306.1280;-19.7300;-15.1000;-4.6300
1306.3270;-20.0600;-15.1100;-4.9500
1306.5270;-20.4100;-15.1400;-5.2700
1306.7260;-20.7700;-15.1400;-5.6300
1306.9250;-21.1600;-15.1700;-5.9900
1307.1240;-21.5500;-15.1700;-6.3800
1307.3230;-21.9400;-15.1900;-6.7500
1307.5220;-22.2900;-15.2100;-7.0800
1307.7210;-22.6000;-15.2300;-7.3700
1307.9200;-22.8500;-15.2600;-7.5900
1308.1200;-23.0200;-15.2700;-7.7500
1308.3190;-23.1000;-15.2900;-7.8100
1308.5180;-23.0600;-15.3200;-7.7400
1308.7170;-22.9300;-15.3400;-7.5900
1308.9160;-22.6800;-15.3700;-7.3100
1309.1150;-22.3700;-15.3800;-6.9900
1309.3140;-22.0100;-15.4100;-6.6000
1309.5130;-21.6000;-15.4300;-6.1700
1309.7120;-21.1800;-15.4500;-5.7300
