Wavelength (nm);Intensity (dBm)
1131.0;1131.0
1200.0;-62.17
1200.199;-62.17
1200.398;-62.09
1200.597;-61.99
1200.797;-61.93
1200.996;-61.91
1201.195;-61.86
1201.394;-61.76
1201.593;-61.65
1201.792;-61.62
1201.991;-61.61
1202.19;-61.51
1202.389;-61.44
1202.589;-61.41
1202.788;-61.35
1202.987;-61.33
1203.186;-61.26
1203.385;-61.2
1203.584;-61.23
1203.783;-61.22
1203.982;-61.18
1204.181;-61.1
1204.381;-61.12
1204.58;-61.15
1204.779;-61.12
1204.978;-61.1
1205.177;-61.12
1205.376;-61.15
1205.575;-61.21
1205.774;-61.18
1205.974;-61.19
1206.173;-61.25
1206.372;-61.25
1206.571;-61.23
1206.77;-61.19
1206.969;-61.22
1207.168;-61.2
1207.367;-61.1
1207.566;-61.01
1207.766;-60.96
1207.965;-60.94
1208.164;-60.84
1208.363;-60.74
1208.562;-60.63
1208.761;-60.56
1208.96;-60.49
1209.159;-60.38
1209.358;-60.29
1209.558;-60.26
1209.757;-60.18
1209.956;-60.1
1210.155;-60.03
1210.354;-60.0
1210.553;-59.98
1210.752;-59.95
1210.951;-59.9
1211.15;-59.87
1211.35;-59.92
1211.549;-59.94
1211.748;-59.91
1211.947;-59.93
1212.146;-59.98
1212.345;-60.02
1212.544;-60.06
1212.743;-60.07
1212.943;-60.12
1213.142;-60.16
1213.341;-60.16
1213.54;-60.18
1213.739;-60.18
1213.938;-60.16
1214.137;-60.12
1214.336;-60.01
1214.535;-60.01
1214.735;-59.92
1214.934;-59.83
1215.133;-59.71
1215.332;-59.6
1215.531;-59.55
1215.73;-59.42
1215.929;-59.29
1216.128;-59.18
1216.327;-59.1
1216.527;-59.0
1216.726;-58.88
1216.925;-58.78
1217.124;-58.7
1217.323;-58.62
1217.522;-58.56
1217.721;-58.47
1217.92;-58.44
1218.12;-58.42
1218.319;-58.38
1218.518;-58.39
1218.717;-58.41
1218.916;-58.47
1219.115;-58.49
1219.314;-58.53
1219.513;-58.59
1219.712;-58.67
1219.912;-58.74
1220.111;-58.74
1220.31;-58.78
1220.509;-58.84
1220.708;-58.85
1220.907;-58.82
1221.106;-58.77
1221.305;-58.76
1221.504;-58.7
1221.704;-58.6
1221.903;-58.52
1222.102;-58.41
1222.301;-58.31
1222.5;-58.19
1222.699;-58.05
1222.898;-57.95
1223.097;-57.8
1223.297;-57.65
1223.496;-57.5
1223.695;-57.38
1223.894;-57.26
1224.093;-57.08
1224.292;-56.95
1224.491;-56.84
1224.69;-56.72
1224.889;-56.61
1225.089;-56.49
1225.288;-56.41
1225.487;-56.35
1225.686;-56.26
1225.885;-56.21
1226.084;-56.17
1226.283;-56.13
1226.482;-56.08
1226.681;-56.04
1226.881;-56.03
1227.08;-55.98
1227.279;-55.92
1227.478;-55.88
1227.677;-55.82
1227.876;-55.76
1228.075;-55.69
1228.274;-55.62
1228.474;-55.57
1228.673;-55.51
1228.872;-55.46
1229.071;-55.38
1229.27;-55.36
1229.469;-55.33
1229.668;-55.27
1229.867;-55.25
1230.066;-55.25
1230.266;-55.23
1230.465;-55.23
1230.664;-55.24
1230.863;-55.3
1231.062;-55.33
1231.261;-55.37
1231.46;-55.45
1231.659;-55.5
1231.858;-55.57
1232.058;-55.63
1232.257;-55.71
1232.456;-55.8
1232.655;-55.83
1232.854;-55.86
1233.053;-55.87
1233.252;-55.86
1233.451;-55.81
1233.65;-55.72
1233.85;-55.63
1234.049;-55.48
1234.248;-55.29
1234.447;-55.11
1234.646;-54.92
1234.845;-54.74
1235.044;-54.49
1235.243;-54.3
1235.443;-54.1
1235.642;-53.92
1235.841;-53.74
1236.04;-53.57
1236.239;-53.43
1236.438;-53.29
1236.637;-53.17
1236.836;-53.07
1237.035;-52.98
1237.235;-52.9
1237.434;-52.83
1237.633;-52.8
1237.832;-52.78
1238.031;-52.74
1238.23;-52.73
1238.429;-52.73
1238.628;-52.73
1238.827;-52.74
1239.027;-52.74
1239.226;-52.74
1239.425;-52.72
1239.624;-52.7
1239.823;-52.67
1240.022;-52.62
1240.221;-52.55
1240.42;-52.44
1240.62;-52.33
1240.819;-52.22
1241.018;-52.06
1241.217;-51.93
1241.416;-51.78
1241.615;-51.63
1241.814;-51.5
1242.013;-51.36
1242.212;-51.26
1242.412;-51.15
1242.611;-51.04
1242.81;-50.96
1243.009;-50.86
1243.208;-50.79
1243.407;-50.69
1243.606;-50.59
1243.805;-50.51
1244.004;-50.39
1244.204;-50.27
1244.403;-50.14
1244.602;-49.98
1244.801;-49.84
1245.0;-49.66
1245.199;-49.5
1245.398;-49.3
1245.597;-49.1
1245.797;-48.91
1245.996;-48.7
1246.195;-48.51
1246.394;-48.3
1246.593;-48.11
1246.792;-47.93
1246.991;-47.74
1247.19;-47.59
1247.389;-47.45
1247.589;-47.32
1247.788;-47.23
1247.987;-47.16
1248.186;-47.14
1248.385;-47.12
1248.584;-47.14
1248.783;-47.2
1248.982;-47.28
1249.181;-47.38
1249.381;-47.48
1249.58;-47.57
1249.779;-47.65
1249.978;-47.67
1250.177;-47.66
1250.376;-47.55
1250.575;-47.35
1250.774;-47.07
1250.974;-46.71
1251.173;-46.26
1251.372;-45.66
1251.571;-45.21
1251.77;-44.63
1251.969;-44.05
1252.168;-43.47
1252.367;-42.9
1252.566;-42.38
1252.766;-41.85
1252.965;-41.39
1253.164;-40.95
1253.363;-40.54
1253.562;-40.2
1253.761;-39.87
1253.96;-39.62
1254.159;-39.4
1254.358;-39.22
1254.558;-39.13
1254.757;-39.04
1254.956;-39.03
1255.155;-39.07
1255.354;-39.15
1255.553;-39.3
1255.752;-39.47
1255.951;-39.7
1256.15;-39.97
1256.35;-40.28
1256.549;-40.64
1256.748;-40.97
1256.947;-41.32
1257.146;-41.63
1257.345;-41.88
1257.544;-42.05
1257.743;-42.06
1257.943;-41.92
1258.142;-41.61
1258.341;-41.16
1258.54;-40.6
1258.739;-39.95
1258.938;-39.29
1259.137;-38.61
1259.336;-37.96
1259.535;-37.35
1259.735;-36.77
1259.934;-36.25
1260.133;-35.7
1260.332;-35.37
1260.531;-35.02
1260.73;-34.72
1260.929;-34.48
1261.128;-34.28
1261.327;-34.16
1261.527;-34.08
1261.726;-34.04
1261.925;-34.06
1262.124;-34.12
1262.323;-34.24
1262.522;-34.39
1262.721;-34.58
1262.92;-34.8
1263.12;-35.03
1263.319;-35.27
1263.518;-35.5
1263.717;-35.7
1263.916;-35.83
1264.115;-35.89
1264.314;-35.85
1264.513;-35.68
1264.712;-35.39
1264.912;-35.0
1265.111;-34.53
1265.31;-34.02
1265.509;-33.47
1265.708;-32.94
1265.907;-32.41
1266.106;-31.91
1266.305;-31.47
1266.504;-31.06
1266.704;-30.7
1266.903;-30.4
1267.102;-30.14
1267.301;-29.97
1267.5;-29.84
1267.699;-29.78
1267.898;-29.77
1268.097;-29.83
1268.297;-29.96
1268.496;-30.15
1268.695;-30.41
1268.894;-30.75
1269.093;-31.17
1269.292;-31.7
1269.491;-32.33
1269.69;-33.08
1269.889;-33.96
1270.089;-35.01
1270.288;-36.24
1270.487;-37.64
1270.686;-39.41
1270.885;-40.27
1271.084;-40.52
1271.283;-39.62
1271.482;-38.05
1271.681;-36.36
1271.881;-34.52
1272.08;-33.35
1272.279;-32.13
1272.478;-31.08
1272.677;-30.14
1272.876;-29.34
1273.075;-28.63
1273.274;-28.01
1273.474;-27.48
1273.673;-27.01
1273.872;-26.62
1274.071;-26.28
1274.27;-25.96
1274.469;-25.77
1274.668;-25.59
1274.867;-25.46
1275.066;-25.37
1275.266;-25.34
1275.465;-25.32
1275.664;-25.36
1275.863;-25.44
1276.062;-25.54
1276.261;-25.7
1276.46;-25.86
1276.659;-26.04
1276.858;-26.23
1277.058;-26.41
1277.257;-26.61
1277.456;-26.75
1277.655;-26.86
1277.854;-26.91
1278.053;-26.9
1278.252;-26.84
1278.451;-26.69
1278.65;-26.5
1278.85;-26.24
1279.049;-25.96
1279.248;-25.65
1279.447;-25.31
1279.646;-24.97
1279.845;-24.61
1280.044;-24.28
1280.243;-23.96
1280.443;-23.64
1280.642;-23.36
1280.841;-23.07
1281.04;-22.83
1281.239;-22.6
1281.438;-22.4
1281.637;-22.23
1281.836;-22.05
1282.035;-21.92
1282.235;-21.8
1282.434;-21.68
1282.633;-21.62
1282.832;-21.52
1283.031;-21.45
1283.23;-21.37
1283.429;-21.3
1283.628;-21.24
1283.827;-21.16
1284.027;-21.09
1284.226;-21.01
1284.425;-20.92
1284.624;-20.85
1284.823;-20.75
1285.022;-20.66
1285.221;-20.56
1285.42;-20.47
1285.62;-20.39
1285.819;-20.3
1286.018;-20.24
1286.217;-20.16
1286.416;-20.1
1286.615;-20.07
1286.814;-20.04
1287.013;-20.03
1287.212;-20.02
1287.412;-20.03
1287.611;-20.06
1287.81;-20.09
1288.009;-20.14
1288.208;-20.18
1288.407;-20.23
1288.606;-20.28
1288.805;-20.31
1289.004;-20.35
1289.204;-20.34
1289.403;-20.33
1289.602;-20.28
1289.801;-20.21
1290.0;-20.12
1290.199;-19.98
1290.398;-19.84
1290.597;-19.66
1290.797;-19.47
1290.996;-19.26
1291.195;-19.05
1291.394;-18.85
1291.593;-18.62
1291.792;-18.44
1291.991;-18.27
1292.19;-18.11
1292.389;-18.0
1292.589;-17.88
1292.788;-17.81
1292.987;-17.77
1293.186;-17.77
1293.385;-17.81
1293.584;-17.86
1293.783;-17.99
1293.982;-18.13
1294.181;-18.32
1294.381;-18.57
1294.58;-18.83
1294.779;-19.17
1294.978;-19.52
1295.177;-19.93
1295.376;-20.37
1295.575;-20.83
1295.774;-21.32
1295.974;-21.78
1296.173;-22.24
1296.372;-22.61
1296.571;-22.88
1296.77;-23.03
1296.969;-23.01
1297.168;-22.85
1297.367;-22.54
1297.566;-22.12
1297.766;-21.63
1297.965;-21.11
1298.164;-20.59
1298.363;-20.06
1298.562;-19.57
1298.761;-19.1
1298.96;-18.68
1299.159;-18.31
1299.358;-17.96
1299.558;-17.67
1299.757;-17.41
1299.956;-17.2
1300.155;-17.03
1300.354;-16.9
1300.553;-16.81
1300.752;-16.75
1300.951;-16.74
1301.15;-16.77
1301.35;-16.82
1301.549;-16.94
1301.748;-17.06
1301.947;-17.24
1302.146;-17.44
1302.345;-17.67
1302.544;-17.96
1302.743;-18.27
1302.943;-18.62
1303.142;-19.0
1303.341;-19.42
1303.54;-19.89
1303.739;-20.37
1303.938;-20.9
1304.137;-21.46
1304.336;-22.06
1304.535;-22.69
1304.735;-23.34
1304.934;-24.04
1305.133;-24.73
1305.332;-25.44
1305.531;-26.14
1305.73;-26.79
1305.929;-27.36
1306.128;-27.79
1306.327;-28.04
1306.527;-28.05
1306.726;-27.83
1306.925;-27.4
1307.124;-26.83
1307.323;-26.16
1307.522;-25.43
1307.721;-24.71
1307.92;-23.98
1308.12;-23.29
1308.319;-22.63
1308.518;-22.01
1308.717;-21.43
1308.916;-20.87
1309.115;-20.38
1309.314;-19.92
1309.513;-19.5
1309.712;-19.13
1309.912;-18.78
1310.111;-18.49
1310.31;-18.23
1310.509;-18.02
1310.708;-17.84
1310.907;-17.69
1311.106;-17.62
1311.305;-17.56
1311.504;-17.56
1311.704;-17.6
1311.903;-17.67
1312.102;-17.81
1312.301;-17.98
1312.5;-18.23
1312.699;-18.51
1312.898;-18.84
1313.097;-19.25
1313.297;-19.7
1313.496;-20.25
1313.695;-20.84
1313.894;-21.52
1314.093;-22.28
1314.292;-23.11
1314.491;-24.02
1314.69;-24.96
1314.889;-25.91
1315.089;-26.75
1315.288;-27.38
1315.487;-27.66
1315.686;-27.5
1315.885;-26.99
1316.084;-26.23
1316.283;-25.4
1316.482;-24.57
1316.681;-23.77
1316.881;-23.06
1317.08;-22.42
1317.279;-21.87
1317.478;-21.38
1317.677;-20.98
1317.876;-20.64
1318.075;-20.36
1318.274;-20.17
1318.474;-20.02
1318.673;-19.96
1318.872;-19.92
1319.071;-19.97
1319.27;-20.07
1319.469;-20.21
1319.668;-20.44
1319.867;-20.69
1320.066;-21.02
1320.266;-21.4
1320.465;-21.85
1320.664;-22.37
1320.863;-22.93
1321.062;-23.57
1321.261;-24.25
1321.46;-24.98
1321.659;-25.74
1321.858;-26.48
1322.058;-27.19
1322.257;-27.77
1322.456;-28.19
1322.655;-28.34
1322.854;-28.26
1323.053;-27.97
1323.252;-27.52
1323.451;-27.02
1323.65;-26.47
1323.85;-25.96
1324.049;-25.48
1324.248;-25.06
1324.447;-24.71
1324.646;-24.4
1324.845;-24.17
1325.044;-23.99
1325.243;-23.88
1325.443;-23.83
1325.642;-23.85
1325.841;-23.94
1326.04;-24.07
1326.239;-24.28
1326.438;-24.53
1326.637;-24.86
1326.836;-25.25
1327.035;-25.71
1327.235;-26.26
1327.434;-26.87
1327.633;-27.58
1327.832;-28.38
1328.031;-29.46
1328.23;-30.31
1328.429;-31.47
1328.628;-32.79
1328.827;-34.25
1329.027;-35.88
1329.226;-37.52
1329.425;-39.23
1329.624;-39.64
1329.823;-39.33
1330.022;-38.32
1330.221;-37.06
1330.42;-35.63
1330.62;-34.74
1330.819;-33.82
1331.018;-33.03
1331.217;-32.4
1331.416;-31.86
1331.615;-31.44
1331.814;-31.11
1332.013;-30.86
1332.212;-30.7
1332.412;-30.58
1332.611;-30.55
1332.81;-30.55
1333.009;-30.61
1333.208;-30.71
1333.407;-30.83
1333.606;-31.01
1333.805;-31.2
1334.004;-31.41
1334.204;-31.63
1334.403;-31.85
1334.602;-32.07
1334.801;-32.26
1335.0;-32.46
1335.199;-32.62
1335.398;-32.75
1335.597;-32.86
1335.797;-32.94
1335.996;-33.01
1336.195;-33.04
1336.394;-33.06
1336.593;-33.08
1336.792;-33.09
1336.991;-33.13
1337.19;-33.15
1337.389;-33.22
1337.589;-33.29
1337.788;-33.4
1337.987;-33.54
1338.186;-33.69
1338.385;-33.9
1338.584;-34.13
1338.783;-34.4
1338.982;-34.72
1339.181;-35.06
1339.381;-35.45
1339.58;-35.85
1339.779;-36.3
1339.978;-36.77
1340.177;-37.25
1340.376;-37.76
1340.575;-38.23
1340.774;-38.78
1340.974;-39.09
1341.173;-39.43
1341.372;-39.67
1341.571;-39.84
1341.77;-39.91
1341.969;-39.89
1342.168;-39.81
1342.367;-39.66
1342.566;-39.49
1342.766;-39.31
1342.965;-39.13
1343.164;-38.98
1343.363;-38.84
1343.562;-38.74
1343.761;-38.67
1343.96;-38.65
1344.159;-38.68
1344.358;-38.74
1344.558;-38.87
1344.757;-39.02
1344.956;-39.23
1345.155;-39.5
1345.354;-39.81
1345.553;-40.19
1345.752;-40.62
1345.951;-41.13
1346.15;-41.7
1346.35;-42.35
1346.549;-43.1
1346.748;-43.9
1346.947;-44.83
1347.146;-45.85
1347.345;-46.99
1347.544;-48.31
1347.743;-50.16
1347.943;-51.49
1348.142;-53.22
1348.341;-54.88
1348.54;-55.94
1348.739;-56.06
1348.938;-55.26
1349.137;-54.05
1349.336;-52.81
1349.535;-51.68
1349.735;-50.73
1349.934;-49.94
1350.133;-49.33
1350.332;-48.91
1350.531;-48.52
1350.73;-48.23
1350.929;-47.98
1351.128;-47.83
1351.327;-47.79
1351.527;-47.86
1351.726;-48.08
1351.925;-48.31
1352.124;-48.64
1352.323;-49.03
1352.522;-49.55
1352.721;-50.12
1352.92;-50.8
1353.12;-51.7
1353.319;-52.55
1353.518;-53.66
1353.717;-54.95
1353.916;-56.32
1354.115;-57.95
1354.314;-60.19
1354.513;-61.41
1354.712;-62.38
1354.912;-62.16
1355.111;-60.76
1355.31;-59.09
1355.509;-57.47
1355.708;-56.44
1355.907;-55.3
1356.106;-54.49
1356.305;-53.6
1356.504;-52.88
1356.704;-52.2
1356.903;-51.77
1357.102;-51.69
1357.301;-51.49
1357.5;-51.32
1357.699;-51.24
1357.898;-51.12
1358.097;-51.07
1358.297;-51.19
1358.496;-51.45
1358.695;-51.68
1358.894;-51.99
1359.093;-52.38
1359.292;-52.72
1359.491;-53.42
1359.69;-54.18
1359.889;-54.98
1360.089;-55.77
1360.288;-56.58
1360.487;-57.42
1360.686;-58.84
1360.885;-60.07
1361.084;-61.61
1361.283;-63.14
1361.482;-64.48
1361.681;-65.21
1361.881;-64.96
1362.08;-64.14
1362.279;-63.36
1362.478;-62.32
1362.677;-61.09
1362.876;-59.84
1363.075;-58.82
1363.274;-57.92
1363.474;-57.33
1363.673;-56.87
1363.872;-56.54
1364.071;-56.36
1364.27;-56.25
1364.469;-56.34
1364.668;-56.71
1364.867;-56.86
1365.066;-56.85
1365.266;-57.07
1365.465;-57.14
1365.664;-57.42
1365.863;-57.77
1366.062;-58.16
1366.261;-58.64
1366.46;-59.18
1366.659;-59.95
1366.858;-60.88
1367.058;-61.87
1367.257;-62.92
1367.456;-64.23
1367.655;-65.39
1367.854;-66.74
1368.053;-67.79
1368.252;-68.47
1368.451;-68.87
1368.65;-68.24
1368.85;-67.29
1369.049;-66.21
1369.248;-65.21
1369.447;-64.27
1369.646;-63.48
1369.845;-63.13
1370.044;-62.62
1370.243;-62.18
1370.443;-61.71
1370.642;-61.37
1370.841;-61.41
1371.04;-61.44
1371.239;-61.44
1371.438;-61.35
1371.637;-61.29
1371.836;-61.3
1372.035;-61.58
1372.235;-61.93
1372.434;-62.28
1372.633;-62.73
1372.832;-63.12
1373.031;-63.58
1373.23;-64.23
1373.429;-64.96
1373.628;-65.86
1373.827;-66.78
1374.027;-67.89
1374.226;-68.93
1374.425;-70.23
1374.624;-71.47
1374.823;-72.56
1375.022;-73.94
1375.221;-74.54
1375.42;-74.16
1375.62;-73.64
1375.819;-72.29
1376.018;-71.55
1376.217;-70.53
1376.416;-69.68
1376.615;-68.9
1376.814;-68.41
1377.013;-68.16
1377.212;-67.67
1377.412;-67.32
1377.611;-66.95
1377.81;-66.6
1378.009;-66.49
1378.208;-66.47
1378.407;-66.51
1378.606;-66.76
1378.805;-67.02
1379.004;-67.19
1379.204;-67.35
1379.403;-67.48
1379.602;-67.68
1379.801;-68.05
1380.0;-68.5
1380.199;-69.08
1380.398;-69.65
1380.597;-70.56
1380.797;-71.68
1380.996;-72.43
1381.195;-73.44
1381.394;-73.6
1381.593;-74.27
1381.792;-75.16
1381.991;-75.43
1382.19;-76.03
1382.389;-77.43
1382.589;-78.91
1382.788;-78.73
1382.987;-79.79
1383.186;-78.22
1383.385;-76.97
1383.584;-76.17
1383.783;-76.24
1383.982;-76.19
1384.181;-75.32
1384.381;-75.23
1384.58;-74.78
1384.779;-74.35
1384.978;-73.8
1385.177;-74.08
1385.376;-74.17
1385.575;-73.64
1385.774;-73.75
1385.974;-73.24
1386.173;-73.33
1386.372;-73.38
1386.571;-72.99
1386.77;-73.1
1386.969;-73.07
1387.168;-72.99
1387.367;-73.03
1387.566;-72.96
1387.766;-73.54
1387.965;-73.71
1388.164;-74.14
1388.363;-73.77
1388.562;-74.25
1388.761;-73.99
1388.96;-74.18
1389.159;-73.78
1389.358;-74.32
1389.558;-74.38
1389.757;-74.45
1389.956;-74.56
1390.155;-74.77
1390.354;-74.41
1390.553;-75.51
1390.752;-75.35
1390.951;-76.06
1391.15;-75.94
1391.35;-77.06
1391.549;-77.49
1391.748;-77.56
1391.947;-77.69
1392.146;-78.87
1392.345;-78.02
1392.544;-79.43
1392.743;-79.36
1392.943;-79.78
1393.142;-80.57
1393.341;-79.36
1393.54;-78.96
1393.739;-79.71
1393.938;-79.67
1394.137;-78.21
1394.336;-78.53
1394.535;-80.08
1394.735;-79.74
1394.934;-79.33
1395.133;-79.17
1395.332;-77.67
1395.531;-77.71
1395.73;-78.24
1395.929;-77.85
1396.128;-77.43
1396.327;-77.17
1396.527;-76.7
1396.726;-76.21
1396.925;-76.49
1397.124;-76.79
1397.323;-76.62
1397.522;-75.98
1397.721;-75.73
1397.92;-75.81
1398.12;-76.19
1398.319;-76.32
1398.518;-76.2
1398.717;-76.85
1398.916;-76.4
1399.115;-76.28
1399.314;-76.36
1399.513;-76.74
1399.712;-76.92
1399.912;-76.96
1400.111;-77.98
1400.31;-77.08
1400.509;-77.06
1400.708;-78.1
1400.907;-77.75
1401.106;-77.81
1401.305;-76.89
1401.504;-77.61
1401.704;-77.98
1401.903;-77.75
1402.102;-77.84
1402.301;-78.12
1402.5;-78.82
1402.699;-77.55
1402.898;-78.1
1403.097;-78.33
1403.297;-79.79
1403.496;-79.0
1403.695;-78.1
1403.894;-77.88
1404.093;-78.27
1404.292;-79.34
1404.491;-79.47
1404.69;-80.49
1404.889;-79.97
1405.089;-79.12
1405.288;-80.17
1405.487;-81.49
1405.686;-82.13
1405.885;-79.44
1406.084;-79.65
1406.283;-80.25
1406.482;-79.9
1406.681;-79.45
1406.881;-80.38
1407.08;-81.84
1407.279;-83.69
1407.478;-80.95
1407.677;-81.78
1407.876;-81.3
1408.075;-80.42
1408.274;-79.52
1408.474;-81.72
1408.673;-80.02
1408.872;-82.2
1409.071;-81.84
1409.27;-80.34
1409.469;-81.5
1409.668;-81.35
1409.867;-81.5
1410.066;-80.95
1410.266;-80.59
1410.465;-79.76
1410.664;-81.56
1410.863;-79.87
1411.062;-81.84
1411.261;-80.06
1411.46;-80.18
1411.659;-80.18
1411.858;-79.38
1412.058;-80.59
1412.257;-80.22
1412.456;-80.77
1412.655;-79.8
1412.854;-80.18
1413.053;-80.5
1413.252;-81.45
1413.451;-81.1
1413.65;-80.91
1413.85;-81.25
1414.049;-80.82
1414.248;-80.11
1414.447;-79.92
1414.646;-79.95
1414.845;-78.99
1415.044;-80.78
1415.243;-80.51
1415.443;-81.36
1415.642;-80.15
1415.841;-80.91
1416.04;-80.78
1416.239;-80.23
1416.438;-79.11
1416.637;-79.81
1416.836;-80.56
1417.035;-80.43
1417.235;-81.57
1417.434;-80.87
1417.633;-80.11
1417.832;-81.57
1418.031;-82.97
1418.23;-79.23
1418.429;-78.84
1418.628;-80.73
1418.827;-79.95
1419.027;-80.69
1419.226;-79.92
1419.425;-79.81
1419.624;-79.39
1419.823;-80.47
1420.022;-80.64
1420.221;-80.11
1420.42;-81.06
1420.62;-80.03
1420.819;-79.14
1421.018;-82.54
1421.217;-79.14
1421.416;-80.6
1421.615;-79.68
1421.814;-79.47
1422.013;-80.32
1422.212;-80.74
1422.412;-80.61
1422.611;-80.92
1422.81;-80.79
1423.009;-80.36
1423.208;-80.24
1423.407;-79.96
1423.606;-79.5
1423.805;-79.47
1424.004;-82.98
1424.204;-80.88
1424.403;-79.68
1424.602;-80.52
1424.801;-78.79
1425.0;-79.82
