Wavelength (nm);Intensity (dBm)
1131.0;1131.0
1200.0;-62.35
1200.199;-62.34
1200.398;-62.25
1200.597;-62.22
1200.797;-62.18
1200.996;-62.19
1201.195;-62.16
1201.394;-62.04
1201.593;-61.98
1201.792;-61.97
1201.991;-61.91
1202.19;-61.83
1202.389;-61.74
1202.589;-61.72
1202.788;-61.67
1202.987;-61.61
1203.186;-61.5
1203.385;-61.4
1203.584;-61.37
1203.783;-61.34
1203.982;-61.2
1204.181;-61.12
1204.381;-61.12
1204.58;-61.1
1204.779;-61.03
1204.978;-60.97
1205.177;-60.98
1205.376;-60.99
1205.575;-60.96
1205.774;-60.93
1205.974;-60.93
1206.173;-60.98
1206.372;-61.0
1206.571;-60.93
1206.77;-60.93
1206.969;-60.97
1207.168;-60.96
1207.367;-60.9
1207.566;-60.87
1207.766;-60.9
1207.965;-60.85
1208.164;-60.78
1208.363;-60.71
1208.562;-60.69
1208.761;-60.66
1208.96;-60.61
1209.159;-60.52
1209.358;-60.51
1209.558;-60.5
1209.757;-60.47
1209.956;-60.38
1210.155;-60.36
1210.354;-60.33
1210.553;-60.29
1210.752;-60.28
1210.951;-60.19
1211.15;-60.16
1211.35;-60.16
1211.549;-60.12
1211.748;-60.08
1211.947;-60.07
1212.146;-60.05
1212.345;-60.01
1212.544;-59.98
1212.743;-59.97
1212.943;-59.96
1213.142;-59.95
1213.341;-59.88
1213.54;-59.83
1213.739;-59.83
1213.938;-59.77
1214.137;-59.68
1214.336;-59.59
1214.535;-59.54
1214.735;-59.49
1214.934;-59.37
1215.133;-59.29
1215.332;-59.23
1215.531;-59.16
1215.73;-59.09
1215.929;-58.99
1216.128;-58.97
1216.327;-58.92
1216.527;-58.87
1216.726;-58.82
1216.925;-58.79
1217.124;-58.77
1217.323;-58.75
1217.522;-58.72
1217.721;-58.72
1217.92;-58.72
1218.12;-58.73
1218.319;-58.72
1218.518;-58.72
1218.717;-58.77
1218.916;-58.78
1219.115;-58.8
1219.314;-58.8
1219.513;-58.82
1219.712;-58.84
1219.912;-58.82
1220.111;-58.79
1220.31;-58.73
1220.509;-58.68
1220.708;-58.61
1220.907;-58.47
1221.106;-58.38
1221.305;-58.26
1221.504;-58.1
1221.704;-57.96
1221.903;-57.82
1222.102;-57.67
1222.301;-57.53
1222.5;-57.36
1222.699;-57.26
1222.898;-57.15
1223.097;-57.06
1223.297;-56.97
1223.496;-56.88
1223.695;-56.85
1223.894;-56.8
1224.093;-56.76
1224.292;-56.76
1224.491;-56.75
1224.69;-56.78
1224.889;-56.79
1225.089;-56.84
1225.288;-56.89
1225.487;-56.95
1225.686;-57.05
1225.885;-57.1
1226.084;-57.19
1226.283;-57.28
1226.482;-57.31
1226.681;-57.38
1226.881;-57.4
1227.08;-57.38
1227.279;-57.35
1227.478;-57.26
1227.677;-57.17
1227.876;-57.03
1228.075;-56.84
1228.274;-56.65
1228.474;-56.44
1228.673;-56.25
1228.872;-56.0
1229.071;-55.78
1229.27;-55.53
1229.469;-55.36
1229.668;-55.17
1229.867;-54.99
1230.066;-54.86
1230.266;-54.69
1230.465;-54.57
1230.664;-54.47
1230.863;-54.41
1231.062;-54.36
1231.261;-54.32
1231.46;-54.32
1231.659;-54.33
1231.858;-54.34
1232.058;-54.4
1232.257;-54.43
1232.456;-54.51
1232.655;-54.57
1232.854;-54.63
1233.053;-54.71
1233.252;-54.75
1233.451;-54.78
1233.65;-54.79
1233.85;-54.77
1234.049;-54.74
1234.248;-54.65
1234.447;-54.56
1234.646;-54.43
1234.845;-54.31
1235.044;-54.16
1235.243;-54.0
1235.443;-53.84
1235.642;-53.68
1235.841;-53.53
1236.04;-53.4
1236.239;-53.25
1236.438;-53.14
1236.637;-53.03
1236.836;-52.92
1237.035;-52.85
1237.235;-52.77
1237.434;-52.72
1237.633;-52.67
1237.832;-52.65
1238.031;-52.63
1238.23;-52.62
1238.429;-52.63
1238.628;-52.64
1238.827;-52.64
1239.027;-52.66
1239.226;-52.67
1239.425;-52.68
1239.624;-52.66
1239.823;-52.63
1240.022;-52.6
1240.221;-52.53
1240.42;-52.45
1240.62;-52.35
1240.819;-52.23
1241.018;-52.09
1241.217;-51.95
1241.416;-51.82
1241.615;-51.66
1241.814;-51.53
1242.013;-51.4
1242.212;-51.28
1242.412;-51.19
1242.611;-51.08
1242.81;-51.01
1243.009;-50.94
1243.208;-50.87
1243.407;-50.83
1243.606;-50.77
1243.805;-50.73
1244.004;-50.66
1244.204;-50.58
1244.403;-50.52
1244.602;-50.4
1244.801;-50.28
1245.0;-50.13
1245.199;-49.95
1245.398;-49.76
1245.597;-49.51
1245.797;-49.28
1245.996;-48.99
1246.195;-48.7
1246.394;-48.41
1246.593;-48.08
1246.792;-47.78
1246.991;-47.45
1247.19;-47.14
1247.389;-46.85
1247.589;-46.53
1247.788;-46.25
1247.987;-45.96
1248.186;-45.67
1248.385;-45.46
1248.584;-45.21
1248.783;-45.01
1248.982;-44.79
1249.181;-44.59
1249.381;-44.39
1249.58;-44.19
1249.779;-44.01
1249.978;-43.81
1250.177;-43.64
1250.376;-43.45
1250.575;-43.26
1250.774;-43.08
1250.974;-42.91
1251.173;-42.73
1251.372;-42.54
1251.571;-42.38
1251.77;-42.22
1251.969;-42.05
1252.168;-41.91
1252.367;-41.77
1252.566;-41.66
1252.766;-41.57
1252.965;-41.51
1253.164;-41.48
1253.363;-41.46
1253.562;-41.5
1253.761;-41.58
1253.96;-41.7
1254.159;-41.89
1254.358;-42.11
1254.558;-42.42
1254.757;-42.78
1254.956;-43.2
1255.155;-43.72
1255.354;-44.25
1255.553;-44.84
1255.752;-45.41
1255.951;-45.87
1256.15;-46.17
1256.35;-46.13
1256.549;-45.78
1256.748;-45.1
1256.947;-44.22
1257.146;-43.24
1257.345;-42.22
1257.544;-41.26
1257.743;-40.33
1257.943;-39.45
1258.142;-38.67
1258.341;-37.93
1258.54;-37.28
1258.739;-36.66
1258.938;-36.12
1259.137;-35.56
1259.336;-35.21
1259.535;-34.85
1259.735;-34.52
1259.934;-34.27
1260.133;-34.05
1260.332;-33.89
1260.531;-33.81
1260.73;-33.77
1260.929;-33.8
1261.128;-33.87
1261.327;-34.03
1261.527;-34.26
1261.726;-34.55
1261.925;-34.94
1262.124;-35.38
1262.323;-35.92
1262.522;-36.55
1262.721;-37.24
1262.92;-37.99
1263.12;-38.87
1263.319;-39.41
1263.518;-39.88
1263.717;-40.01
1263.916;-39.74
1264.115;-39.07
1264.314;-38.18
1264.513;-37.17
1264.712;-36.14
1264.912;-35.0
1265.111;-34.24
1265.31;-33.42
1265.509;-32.67
1265.708;-32.0
1265.907;-31.39
1266.106;-30.86
1266.305;-30.4
1266.504;-30.01
1266.704;-29.68
1266.903;-29.4
1267.102;-29.18
1267.301;-29.02
1267.5;-28.92
1267.699;-28.87
1267.898;-28.84
1268.097;-28.88
1268.297;-28.94
1268.496;-29.04
1268.695;-29.16
1268.894;-29.28
1269.093;-29.4
1269.292;-29.52
1269.491;-29.59
1269.69;-29.64
1269.889;-29.59
1270.089;-29.49
1270.288;-29.32
1270.487;-29.08
1270.686;-28.78
1270.885;-28.41
1271.084;-28.02
1271.283;-27.62
1271.482;-27.2
1271.681;-26.82
1271.881;-26.43
1272.08;-26.05
1272.279;-25.79
1272.478;-25.53
1272.677;-25.31
1272.876;-25.14
1273.075;-25.03
1273.274;-24.96
1273.474;-24.95
1273.673;-24.99
1273.872;-25.1
1274.071;-25.28
1274.27;-25.52
1274.469;-25.85
1274.668;-26.23
1274.867;-26.73
1275.066;-27.33
1275.266;-28.03
1275.465;-29.06
1275.664;-29.9
1275.863;-31.09
1276.062;-32.48
1276.261;-34.06
1276.46;-35.64
1276.659;-36.69
1276.858;-36.56
1277.058;-35.21
1277.257;-33.43
1277.456;-31.65
1277.655;-30.06
1277.854;-28.68
1278.053;-27.48
1278.252;-26.45
1278.451;-25.4
1278.65;-24.78
1278.85;-24.1
1279.049;-23.53
1279.248;-23.05
1279.447;-22.64
1279.646;-22.32
1279.845;-22.04
1280.044;-21.84
1280.243;-21.71
1280.443;-21.64
1280.642;-21.65
1280.841;-21.69
1281.04;-21.81
1281.239;-22.01
1281.438;-22.26
1281.637;-22.61
1281.836;-23.0
1282.035;-23.5
1282.235;-24.08
1282.434;-24.75
1282.633;-25.54
1282.832;-26.37
1283.031;-27.26
1283.23;-28.13
1283.429;-28.98
1283.628;-29.24
1283.827;-29.16
1284.027;-28.63
1284.226;-27.76
1284.425;-26.76
1284.624;-25.55
1284.823;-24.74
1285.022;-23.85
1285.221;-23.03
1285.42;-22.33
1285.62;-21.69
1285.819;-21.15
1286.018;-20.69
1286.217;-20.3
1286.416;-20.0
1286.615;-19.76
1286.814;-19.58
1287.013;-19.48
1287.212;-19.44
1287.412;-19.49
1287.611;-19.58
1287.81;-19.77
1288.009;-20.02
1288.208;-20.36
1288.407;-20.8
1288.606;-21.32
1288.805;-21.95
1289.004;-22.7
1289.204;-23.58
1289.403;-24.63
1289.602;-25.84
1289.801;-27.25
1290.0;-29.14
1290.199;-30.37
1290.398;-31.42
1290.597;-31.47
1290.797;-30.4
1290.996;-28.82
1291.195;-27.23
1291.394;-25.55
1291.593;-24.51
1291.792;-23.43
1291.991;-22.51
1292.19;-21.74
1292.389;-21.08
1292.589;-20.53
1292.788;-20.06
1292.987;-19.69
1293.186;-19.42
1293.385;-19.21
1293.584;-19.08
1293.783;-19.01
1293.982;-19.02
1294.181;-19.11
1294.381;-19.25
1294.58;-19.46
1294.779;-19.73
1294.978;-20.08
1295.177;-20.49
1295.376;-20.95
1295.575;-21.47
1295.774;-22.02
1295.974;-22.6
1296.173;-23.17
1296.372;-23.68
1296.571;-24.09
1296.77;-24.31
1296.969;-24.35
1297.168;-24.15
1297.367;-23.78
1297.566;-23.29
1297.766;-22.71
1297.965;-22.14
1298.164;-21.55
1298.363;-21.02
1298.562;-20.53
1298.761;-20.1
1298.96;-19.75
1299.159;-19.44
1299.358;-19.22
1299.558;-19.04
1299.757;-18.94
1299.956;-18.93
1300.155;-18.96
1300.354;-19.08
1300.553;-19.26
1300.752;-19.52
1300.951;-19.89
1301.15;-20.34
1301.35;-20.9
1301.549;-21.56
1301.748;-22.36
1301.947;-23.32
1302.146;-24.45
1302.345;-25.81
1302.544;-27.38
1302.743;-29.61
1302.943;-31.02
1303.142;-32.07
1303.341;-31.58
1303.54;-29.93
1303.739;-28.0
1303.938;-26.22
1304.137;-24.47
1304.336;-23.39
1304.535;-22.3
1304.735;-21.37
1304.934;-20.56
1305.133;-19.9
1305.332;-19.32
1305.531;-18.86
1305.73;-18.48
1305.929;-18.17
1306.128;-17.96
1306.327;-17.79
1306.527;-17.72
1306.726;-17.7
1306.925;-17.74
1307.124;-17.87
1307.323;-18.04
1307.522;-18.3
1307.721;-18.61
1307.92;-19.0
1308.12;-19.49
1308.319;-20.02
1308.518;-20.66
1308.717;-21.36
1308.916;-22.14
1309.115;-22.99
1309.314;-23.84
1309.513;-24.68
1309.712;-25.32
1309.912;-25.7
1310.111;-25.74
1310.31;-25.38
1310.509;-24.78
1310.708;-23.97
1310.907;-23.13
1311.106;-22.31
1311.305;-21.54
1311.504;-20.87
1311.704;-20.24
1311.903;-19.71
1312.102;-19.23
1312.301;-18.83
1312.5;-18.52
1312.699;-18.25
1312.898;-18.06
1313.097;-17.89
1313.297;-17.81
1313.496;-17.78
1313.695;-17.79
1313.894;-17.87
1314.093;-17.98
1314.292;-18.14
1314.491;-18.35
1314.69;-18.59
1314.889;-18.89
1315.089;-19.21
1315.288;-19.58
1315.487;-19.98
1315.686;-20.39
1315.885;-20.83
1316.084;-21.25
1316.283;-21.68
1316.482;-22.06
1316.681;-22.41
1316.881;-22.68
1317.08;-22.88
1317.279;-23.0
1317.478;-23.02
1317.677;-22.96
1317.876;-22.82
1318.075;-22.64
1318.274;-22.44
1318.474;-22.21
1318.673;-22.01
1318.872;-21.77
1319.071;-21.58
1319.27;-21.4
1319.469;-21.23
1319.668;-21.12
1319.867;-21.01
1320.066;-20.94
1320.266;-20.89
1320.465;-20.86
1320.664;-20.87
1320.863;-20.88
1321.062;-20.94
1321.261;-20.99
1321.46;-21.06
1321.659;-21.15
1321.858;-21.24
1322.058;-21.36
1322.257;-21.46
1322.456;-21.58
1322.655;-21.69
1322.854;-21.81
1323.053;-21.94
1323.252;-22.06
1323.451;-22.2
1323.65;-22.32
1323.85;-22.46
1324.049;-22.61
1324.248;-22.76
1324.447;-22.94
1324.646;-23.12
1324.845;-23.32
1325.044;-23.54
1325.243;-23.78
1325.443;-24.05
1325.642;-24.34
1325.841;-24.66
1326.04;-24.98
1326.239;-25.33
1326.438;-25.71
1326.637;-26.09
1326.836;-26.49
1327.035;-26.88
1327.235;-27.26
1327.434;-27.61
1327.633;-27.92
1327.832;-28.19
1328.031;-28.39
1328.23;-28.55
1328.429;-28.57
1328.628;-28.55
1328.827;-28.47
1329.027;-28.33
1329.226;-28.18
1329.425;-27.99
1329.624;-27.81
1329.823;-27.61
1330.022;-27.45
1330.221;-27.31
1330.42;-27.2
1330.62;-27.13
1330.819;-27.07
1331.018;-27.08
1331.217;-27.12
1331.416;-27.21
1331.615;-27.35
1331.814;-27.53
1332.013;-27.77
1332.212;-28.06
1332.412;-28.41
1332.611;-28.83
1332.81;-29.31
1333.009;-29.87
1333.208;-30.48
1333.407;-31.2
1333.606;-32.02
1333.805;-32.94
1334.004;-34.01
1334.204;-35.22
1334.403;-36.63
1334.602;-38.25
1334.801;-40.63
1335.0;-42.35
1335.199;-44.5
1335.398;-45.82
1335.597;-45.32
1335.797;-43.65
1335.996;-41.79
1336.195;-40.15
1336.394;-38.77
1336.593;-37.64
1336.792;-36.72
1336.991;-35.83
1337.19;-35.35
1337.389;-34.85
1337.589;-34.47
1337.788;-34.17
1337.987;-33.96
1338.186;-33.82
1338.385;-33.75
1338.584;-33.77
1338.783;-33.83
1338.982;-33.97
1339.181;-34.16
1339.381;-34.42
1339.58;-34.75
1339.779;-35.13
1339.978;-35.59
1340.177;-36.1
1340.376;-36.71
1340.575;-37.39
1340.774;-38.14
1340.974;-39.15
1341.173;-39.94
1341.372;-41.0
1341.571;-42.19
1341.77;-43.56
1341.969;-45.09
1342.168;-46.82
1342.367;-49.17
1342.566;-50.66
1342.766;-52.15
1342.965;-52.54
1343.164;-51.79
1343.363;-50.47
1343.562;-49.13
1343.761;-47.95
1343.96;-46.96
1344.159;-46.04
1344.358;-45.52
1344.558;-45.03
1344.757;-44.63
1344.956;-44.34
1345.155;-44.14
1345.354;-44.01
1345.553;-43.96
1345.752;-43.96
1345.951;-44.03
1346.15;-44.14
1346.35;-44.3
1346.549;-44.5
1346.748;-44.69
1346.947;-44.91
1347.146;-45.12
1347.345;-45.31
1347.544;-45.54
1347.743;-45.74
1347.943;-45.9
1348.142;-45.96
1348.341;-46.02
1348.54;-45.99
1348.739;-45.93
1348.938;-45.86
1349.137;-45.75
1349.336;-45.63
1349.535;-45.52
1349.735;-45.41
1349.934;-45.34
1350.133;-45.28
1350.332;-45.31
1350.531;-45.31
1350.73;-45.3
1350.929;-45.31
1351.128;-45.31
1351.327;-45.4
1351.527;-45.52
1351.726;-45.74
1351.925;-45.95
1352.124;-46.17
1352.323;-46.44
1352.522;-46.75
1352.721;-47.06
1352.92;-47.4
1353.12;-47.86
1353.319;-48.2
1353.518;-48.72
1353.717;-49.1
1353.916;-49.47
1354.115;-49.92
1354.314;-50.41
1354.513;-50.87
1354.712;-51.41
1354.912;-51.89
1355.111;-52.25
1355.31;-52.49
1355.509;-52.57
1355.708;-52.82
1355.907;-53.06
1356.106;-53.12
1356.305;-53.09
1356.504;-53.08
1356.704;-52.85
1356.903;-52.87
1357.102;-53.09
1357.301;-53.2
1357.5;-53.28
1357.699;-53.37
1357.898;-53.4
1358.097;-53.43
1358.297;-53.63
1358.496;-53.91
1358.695;-54.12
1358.894;-54.41
1359.093;-54.71
1359.292;-54.94
1359.491;-55.47
1359.69;-55.99
1359.889;-56.46
1360.089;-56.8
1360.288;-57.1
1360.487;-57.3
1360.686;-57.67
1360.885;-58.18
1361.084;-58.69
1361.283;-58.83
1361.482;-58.99
1361.681;-59.15
1361.881;-59.14
1362.08;-59.17
1362.279;-59.37
1362.478;-59.37
1362.677;-59.2
1362.876;-58.82
1363.075;-58.53
1363.274;-58.09
1363.474;-57.98
1363.673;-57.91
1363.872;-57.91
1364.071;-58.02
1364.27;-58.13
1364.469;-58.42
1364.668;-58.9
1364.867;-59.17
1365.066;-59.24
1365.266;-59.5
1365.465;-59.56
1365.664;-59.78
1365.863;-60.05
1366.062;-60.24
1366.261;-60.48
1366.46;-60.74
1366.659;-61.13
1366.858;-61.58
1367.058;-61.93
1367.257;-62.26
1367.456;-62.69
1367.655;-63.03
1367.854;-63.44
1368.053;-63.66
1368.252;-63.67
1368.451;-64.05
1368.65;-64.16
1368.85;-64.26
1369.049;-64.25
1369.248;-64.27
1369.447;-64.22
1369.646;-64.36
1369.845;-64.7
1370.044;-65.02
1370.243;-65.23
1370.443;-65.37
1370.642;-65.6
1370.841;-66.0
1371.04;-66.49
1371.239;-66.95
1371.438;-67.18
1371.637;-67.38
1371.836;-67.57
1372.035;-67.9
1372.235;-68.06
1372.434;-68.3
1372.633;-68.43
1372.832;-68.23
1373.031;-68.08
1373.23;-67.85
1373.429;-67.73
1373.628;-67.39
1373.827;-67.12
1374.027;-66.73
1374.226;-66.51
1374.425;-66.26
1374.624;-65.99
1374.823;-65.89
1375.022;-65.76
1375.221;-65.6
1375.42;-65.46
1375.62;-65.34
1375.819;-65.36
1376.018;-65.31
1376.217;-65.44
1376.416;-65.59
1376.615;-65.71
1376.814;-66.0
1377.013;-66.35
1377.212;-66.78
1377.412;-67.02
1377.611;-67.43
1377.81;-67.81
1378.009;-68.21
1378.208;-68.77
1378.407;-69.55
1378.606;-70.29
1378.805;-71.34
1379.004;-72.28
1379.204;-73.31
1379.403;-73.94
1379.602;-74.66
1379.801;-75.29
1380.0;-76.38
1380.199;-77.25
1380.398;-77.03
1380.597;-76.6
1380.797;-76.71
1380.996;-76.55
1381.195;-75.64
1381.394;-74.62
1381.593;-73.63
1381.792;-73.08
1381.991;-72.9
1382.19;-72.28
1382.389;-72.22
1382.589;-72.4
1382.788;-72.75
1382.987;-72.92
1383.186;-72.43
1383.385;-72.28
1383.584;-72.12
1383.783;-72.3
1383.982;-72.15
1384.181;-72.69
1384.381;-72.8
1384.58;-72.98
1384.779;-73.99
1384.978;-74.5
1385.177;-75.24
1385.376;-75.51
1385.575;-75.89
1385.774;-76.63
1385.974;-76.81
1386.173;-77.73
1386.372;-79.22
1386.571;-79.22
1386.77;-79.16
1386.969;-78.92
1387.168;-79.66
1387.367;-78.98
1387.566;-78.6
1387.766;-78.36
1387.965;-77.26
1388.164;-76.46
1388.363;-76.41
1388.562;-75.91
1388.761;-75.4
1388.96;-74.68
1389.159;-74.33
1389.358;-74.0
1389.558;-73.61
1389.757;-73.45
1389.956;-73.78
1390.155;-73.47
1390.354;-73.24
1390.553;-73.59
1390.752;-73.26
1390.951;-73.17
1391.15;-73.24
1391.35;-73.51
1391.549;-73.38
1391.748;-73.87
1391.947;-73.68
1392.146;-74.11
1392.345;-74.6
1392.544;-75.44
1392.743;-75.44
1392.943;-76.11
1393.142;-75.07
1393.341;-74.79
1393.54;-75.5
1393.739;-75.77
1393.938;-76.04
1394.137;-76.66
1394.336;-77.35
1394.535;-77.01
1394.735;-77.43
1394.934;-77.83
1395.133;-78.07
1395.332;-78.26
1395.531;-77.6
1395.73;-78.9
1395.929;-79.23
1396.128;-78.5
1396.327;-79.11
1396.527;-80.36
1396.726;-79.5
1396.925;-79.92
1397.124;-79.11
1397.323;-78.67
1397.522;-78.96
1397.721;-78.67
1397.92;-78.67
1398.12;-79.14
1398.319;-79.33
1398.518;-78.35
1398.717;-78.27
1398.916;-78.85
1399.115;-78.38
1399.314;-77.68
1399.513;-79.51
1399.712;-78.85
1399.912;-79.82
1400.111;-79.37
1400.31;-78.27
1400.509;-78.3
1400.708;-79.28
1400.907;-78.43
1401.106;-79.75
1401.305;-79.41
1401.504;-79.12
1401.704;-79.15
1401.903;-79.51
1402.102;-79.31
1402.301;-80.62
1402.5;-78.7
1402.699;-78.03
1402.898;-80.17
1403.097;-79.82
1403.297;-80.67
1403.496;-79.75
1403.695;-79.72
1403.894;-80.25
1404.093;-79.82
1404.292;-81.89
1404.491;-79.06
1404.69;-80.05
1404.889;-80.45
1405.089;-80.54
1405.288;-81.09
1405.487;-80.76
1405.686;-80.01
1405.885;-79.65
1406.084;-80.01
1406.283;-80.62
1406.482;-80.05
1406.681;-80.68
1406.881;-80.06
1407.08;-79.73
1407.279;-79.73
1407.478;-80.68
1407.677;-80.42
1407.876;-79.69
1408.075;-79.45
1408.274;-79.48
1408.474;-81.3
1408.673;-79.45
1408.872;-81.14
1409.071;-82.14
1409.27;-81.56
1409.469;-81.67
1409.668;-82.96
1409.867;-80.59
1410.066;-81.35
1410.266;-81.19
1410.465;-80.18
1410.664;-79.91
1410.863;-81.05
1411.062;-82.02
1411.261;-80.06
1411.46;-80.34
1411.659;-80.77
1411.858;-79.73
1412.058;-80.46
1412.257;-79.48
1412.456;-80.63
1412.655;-79.62
1412.854;-80.68
1413.053;-79.38
1413.252;-79.76
1413.451;-80.1
1413.65;-80.91
1413.85;-79.49
1414.049;-80.39
1414.248;-79.53
1414.447;-80.78
1414.646;-79.92
1414.845;-81.51
1415.044;-80.6
1415.243;-81.51
1415.443;-78.96
1415.642;-81.73
1415.841;-79.11
1416.04;-79.46
1416.239;-80.51
1416.438;-79.39
1416.637;-79.11
1416.836;-79.11
1417.035;-80.11
1417.235;-79.7
1417.434;-79.53
1417.633;-79.17
1417.832;-80.56
1418.031;-80.73
1418.23;-80.31
1418.429;-83.44
1418.628;-79.81
1418.827;-81.36
1419.027;-80.91
1419.226;-80.15
1419.425;-80.56
1419.624;-80.31
1419.823;-78.96
1420.022;-80.39
1420.221;-79.39
1420.42;-79.92
1420.62;-81.57
1420.819;-80.69
1421.018;-79.7
1421.217;-78.45
1421.416;-79.26
1421.615;-81.47
1421.814;-80.04
1422.013;-81.8
1422.212;-79.31
1422.412;-79.27
1422.611;-79.37
1422.81;-79.31
1423.009;-78.62
1423.208;-79.54
1423.407;-79.5
1423.606;-80.36
1423.805;-79.93
1424.004;-81.37
1424.204;-80.4
1424.403;-81.02
1424.602;-79.96
1424.801;-79.75
1425.0;-79.78
