Wavelength (nm);Intensity (dBm)
1131.0;1131.0
1200.0;-62.31
1200.199;-62.28
1200.398;-62.23
1200.597;-62.19
1200.797;-62.17
1200.996;-62.18
1201.195;-62.12
1201.394;-62.03
1201.593;-61.99
1201.792;-62.0
1201.991;-61.93
1202.19;-61.8
1202.389;-61.71
1202.589;-61.71
1202.788;-61.64
1202.987;-61.56
1203.186;-61.45
1203.385;-61.37
1203.584;-61.33
1203.783;-61.28
1203.982;-61.14
1204.181;-61.03
1204.381;-61.06
1204.58;-61.04
1204.779;-60.95
1204.978;-60.9
1205.177;-60.91
1205.376;-60.95
1205.575;-60.94
1205.774;-60.9
1205.974;-60.94
1206.173;-61.0
1206.372;-61.01
1206.571;-60.98
1206.77;-61.0
1206.969;-61.05
1207.168;-61.05
1207.367;-61.0
1207.566;-61.0
1207.766;-60.99
1207.965;-61.0
1208.164;-60.92
1208.363;-60.86
1208.562;-60.81
1208.761;-60.8
1208.96;-60.72
1209.159;-60.63
1209.358;-60.57
1209.558;-60.55
1209.757;-60.47
1209.956;-60.41
1210.155;-60.34
1210.354;-60.29
1210.553;-60.23
1210.752;-60.18
1210.951;-60.12
1211.15;-60.05
1211.35;-60.04
1211.549;-59.98
1211.748;-59.92
1211.947;-59.91
1212.146;-59.9
1212.345;-59.89
1212.544;-59.84
1212.743;-59.83
1212.943;-59.86
1213.142;-59.87
1213.341;-59.84
1213.54;-59.81
1213.739;-59.8
1213.938;-59.79
1214.137;-59.73
1214.336;-59.68
1214.535;-59.64
1214.735;-59.58
1214.934;-59.52
1215.133;-59.41
1215.332;-59.37
1215.531;-59.3
1215.73;-59.22
1215.929;-59.14
1216.128;-59.06
1216.327;-59.02
1216.527;-58.92
1216.726;-58.84
1216.925;-58.78
1217.124;-58.74
1217.323;-58.7
1217.522;-58.64
1217.721;-58.59
1217.92;-58.57
1218.12;-58.56
1218.319;-58.53
1218.518;-58.52
1218.717;-58.55
1218.916;-58.57
1219.115;-58.56
1219.314;-58.59
1219.513;-58.62
1219.712;-58.64
1219.912;-58.65
1220.111;-58.65
1220.31;-58.65
1220.509;-58.63
1220.708;-58.57
1220.907;-58.5
1221.106;-58.42
1221.305;-58.35
1221.504;-58.22
1221.704;-58.09
1221.903;-57.96
1222.102;-57.82
1222.301;-57.7
1222.5;-57.52
1222.699;-57.39
1222.898;-57.28
1223.097;-57.16
1223.297;-57.04
1223.496;-56.92
1223.695;-56.84
1223.894;-56.76
1224.093;-56.68
1224.292;-56.64
1224.491;-56.59
1224.69;-56.58
1224.889;-56.58
1225.089;-56.58
1225.288;-56.62
1225.487;-56.65
1225.686;-56.71
1225.885;-56.79
1226.084;-56.87
1226.283;-56.97
1226.482;-57.03
1226.681;-57.13
1226.881;-57.22
1227.08;-57.25
1227.279;-57.28
1227.478;-57.25
1227.677;-57.21
1227.876;-57.15
1228.075;-57.01
1228.274;-56.87
1228.474;-56.69
1228.673;-56.51
1228.872;-56.29
1229.071;-56.06
1229.27;-55.87
1229.469;-55.59
1229.668;-55.42
1229.867;-55.22
1230.066;-55.04
1230.266;-54.88
1230.465;-54.71
1230.664;-54.58
1230.863;-54.5
1231.062;-54.41
1231.261;-54.36
1231.46;-54.33
1231.659;-54.32
1231.858;-54.34
1232.058;-54.37
1232.257;-54.44
1232.456;-54.51
1232.655;-54.6
1232.854;-54.69
1233.053;-54.78
1233.252;-54.88
1233.451;-54.94
1233.65;-55.0
1233.85;-55.04
1234.049;-55.05
1234.248;-55.02
1234.447;-54.95
1234.646;-54.86
1234.845;-54.74
1235.044;-54.58
1235.243;-54.43
1235.443;-54.24
1235.642;-54.06
1235.841;-53.85
1236.04;-53.66
1236.239;-53.49
1236.438;-53.3
1236.637;-53.15
1236.836;-52.99
1237.035;-52.87
1237.235;-52.76
1237.434;-52.64
1237.633;-52.58
1237.832;-52.53
1238.031;-52.48
1238.23;-52.47
1238.429;-52.45
1238.628;-52.47
1238.827;-52.48
1239.027;-52.5
1239.226;-52.53
1239.425;-52.55
1239.624;-52.57
1239.823;-52.56
1240.022;-52.56
1240.221;-52.53
1240.42;-52.46
1240.62;-52.4
1240.819;-52.29
1241.018;-52.16
1241.217;-52.04
1241.416;-51.89
1241.615;-51.74
1241.814;-51.58
1242.013;-51.44
1242.212;-51.32
1242.412;-51.19
1242.611;-51.08
1242.81;-50.98
1243.009;-50.89
1243.208;-50.84
1243.407;-50.79
1243.606;-50.75
1243.805;-50.72
1244.004;-50.68
1244.204;-50.66
1244.403;-50.63
1244.602;-50.58
1244.801;-50.5
1245.0;-50.4
1245.199;-50.28
1245.398;-50.11
1245.597;-49.9
1245.797;-49.65
1245.996;-49.37
1246.195;-49.06
1246.394;-48.72
1246.593;-48.38
1246.792;-48.01
1246.991;-47.63
1247.19;-47.28
1247.389;-46.93
1247.589;-46.59
1247.788;-46.25
1247.987;-45.94
1248.186;-45.59
1248.385;-45.38
1248.584;-45.13
1248.783;-44.9
1248.982;-44.72
1249.181;-44.52
1249.381;-44.37
1249.58;-44.21
1249.779;-44.08
1249.978;-43.96
1250.177;-43.84
1250.376;-43.73
1250.575;-43.61
1250.774;-43.5
1250.974;-43.4
1251.173;-43.26
1251.372;-43.12
1251.571;-42.98
1251.77;-42.81
1251.969;-42.65
1252.168;-42.46
1252.367;-42.28
1252.566;-42.1
1252.766;-41.91
1252.965;-41.76
1253.164;-41.59
1253.363;-41.45
1253.562;-41.34
1253.761;-41.26
1253.96;-41.23
1254.159;-41.21
1254.358;-41.27
1254.558;-41.36
1254.757;-41.5
1254.956;-41.73
1255.155;-42.0
1255.354;-42.35
1255.553;-42.77
1255.752;-43.25
1255.951;-43.8
1256.15;-44.37
1256.35;-44.94
1256.549;-45.41
1256.748;-45.69
1256.947;-45.69
1257.146;-45.33
1257.345;-44.68
1257.544;-43.8
1257.743;-42.81
1257.943;-41.79
1258.142;-40.8
1258.341;-39.86
1258.54;-38.97
1258.739;-38.14
1258.938;-37.39
1259.137;-36.7
1259.336;-36.09
1259.535;-35.43
1259.735;-35.03
1259.934;-34.59
1260.133;-34.22
1260.332;-33.9
1260.531;-33.65
1260.73;-33.46
1260.929;-33.3
1261.128;-33.23
1261.327;-33.22
1261.527;-33.28
1261.726;-33.42
1261.925;-33.61
1262.124;-33.89
1262.323;-34.24
1262.522;-34.7
1262.721;-35.26
1262.92;-35.9
1263.12;-36.66
1263.319;-37.54
1263.518;-38.73
1263.717;-39.58
1263.916;-40.54
1264.115;-41.23
1264.314;-41.34
1264.513;-40.79
1264.712;-39.72
1264.912;-38.42
1265.111;-37.1
1265.31;-35.64
1265.509;-34.7
1265.708;-33.67
1265.907;-32.76
1266.106;-31.95
1266.305;-31.23
1266.504;-30.62
1266.704;-30.06
1266.903;-29.59
1267.102;-29.2
1267.301;-28.86
1267.5;-28.61
1267.699;-28.39
1267.898;-28.23
1268.097;-28.15
1268.297;-28.09
1268.496;-28.11
1268.695;-28.14
1268.894;-28.22
1269.093;-28.33
1269.292;-28.46
1269.491;-28.63
1269.69;-28.77
1269.889;-28.9
1270.089;-29.02
1270.288;-29.08
1270.487;-29.11
1270.686;-29.04
1270.885;-28.9
1271.084;-28.69
1271.283;-28.4
1271.482;-28.07
1271.681;-27.69
1271.881;-27.31
1272.08;-26.9
1272.279;-26.52
1272.478;-26.16
1272.677;-25.77
1272.876;-25.54
1273.075;-25.28
1273.274;-25.08
1273.474;-24.91
1273.673;-24.8
1273.872;-24.74
1274.071;-24.74
1274.27;-24.8
1274.469;-24.91
1274.668;-25.09
1274.867;-25.34
1275.066;-25.67
1275.266;-26.09
1275.465;-26.59
1275.664;-27.21
1275.863;-27.94
1276.062;-29.02
1276.261;-29.91
1276.46;-31.16
1276.659;-32.63
1276.858;-34.28
1277.058;-35.86
1277.257;-36.7
1277.456;-36.17
1277.655;-34.6
1277.854;-32.74
1278.053;-30.99
1278.252;-29.43
1278.451;-28.09
1278.65;-26.94
1278.85;-25.78
1279.049;-25.08
1279.248;-24.34
1279.447;-23.71
1279.646;-23.15
1279.845;-22.68
1280.044;-22.29
1280.243;-21.97
1280.443;-21.73
1280.642;-21.54
1280.841;-21.42
1281.04;-21.36
1281.239;-21.37
1281.438;-21.45
1281.637;-21.57
1281.836;-21.77
1282.035;-22.02
1282.235;-22.35
1282.434;-22.76
1282.633;-23.23
1282.832;-23.77
1283.031;-24.35
1283.23;-24.97
1283.429;-25.6
1283.628;-26.15
1283.827;-26.59
1284.027;-26.79
1284.226;-26.73
1284.425;-26.39
1284.624;-25.81
1284.823;-25.1
1285.022;-24.33
1285.221;-23.54
1285.42;-22.81
1285.62;-22.11
1285.819;-21.49
1286.018;-20.92
1286.217;-20.42
1286.416;-20.0
1286.615;-19.65
1286.814;-19.36
1287.013;-19.13
1287.212;-18.97
1287.412;-18.87
1287.611;-18.83
1287.81;-18.88
1288.009;-18.97
1288.208;-19.14
1288.407;-19.38
1288.606;-19.69
1288.805;-20.1
1289.004;-20.56
1289.204;-21.13
1289.403;-21.78
1289.602;-22.53
1289.801;-23.37
1290.0;-24.25
1290.199;-25.17
1290.398;-26.01
1290.597;-26.64
1290.797;-26.89
1290.996;-26.63
1291.195;-25.98
1291.394;-25.08
1291.593;-24.08
1291.792;-23.11
1291.991;-22.2
1292.19;-21.39
1292.389;-20.64
1292.589;-20.0
1292.788;-19.45
1292.987;-18.98
1293.186;-18.61
1293.385;-18.29
1293.584;-18.05
1293.783;-17.88
1293.982;-17.78
1294.181;-17.76
1294.381;-17.79
1294.58;-17.9
1294.779;-18.07
1294.978;-18.32
1295.177;-18.65
1295.376;-19.05
1295.575;-19.54
1295.774;-20.11
1295.974;-20.78
1296.173;-21.57
1296.372;-22.46
1296.571;-23.48
1296.77;-24.58
1296.969;-25.75
1297.168;-26.86
1297.367;-27.69
1297.566;-28.0
1297.766;-27.65
1297.965;-26.81
1298.164;-25.72
1298.363;-24.59
1298.562;-23.55
1298.761;-22.6
1298.96;-21.78
1299.159;-21.06
1299.358;-20.46
1299.558;-19.94
1299.757;-19.52
1299.956;-19.21
1300.155;-18.96
1300.354;-18.8
1300.553;-18.7
1300.752;-18.69
1300.951;-18.77
1301.15;-18.92
1301.35;-19.15
1301.549;-19.47
1301.748;-19.87
1301.947;-20.38
1302.146;-20.99
1302.345;-21.74
1302.544;-22.61
1302.743;-23.65
1302.943;-24.87
1303.142;-26.31
1303.341;-27.96
1303.54;-30.05
1303.739;-31.09
1303.938;-31.33
1304.137;-30.3
1304.336;-28.6
1304.535;-26.86
1304.735;-25.09
1304.934;-23.98
1305.133;-22.86
1305.332;-21.89
1305.531;-21.1
1305.73;-20.4
1305.929;-19.82
1306.128;-19.35
1306.327;-18.95
1306.527;-18.66
1306.726;-18.42
1306.925;-18.26
1307.124;-18.17
1307.323;-18.13
1307.522;-18.18
1307.721;-18.26
1307.92;-18.41
1308.12;-18.61
1308.319;-18.86
1308.518;-19.17
1308.717;-19.5
1308.916;-19.88
1309.115;-20.26
1309.314;-20.65
1309.513;-21.03
1309.712;-21.33
1309.912;-21.58
1310.111;-21.71
1310.31;-21.73
1310.509;-21.65
1310.708;-21.43
1310.907;-21.16
1311.106;-20.81
1311.305;-20.44
1311.504;-20.06
1311.704;-19.69
1311.903;-19.35
1312.102;-19.04
1312.301;-18.78
1312.5;-18.56
1312.699;-18.39
1312.898;-18.27
1313.097;-18.19
1313.297;-18.19
1313.496;-18.23
1313.695;-18.33
1313.894;-18.48
1314.093;-18.7
1314.292;-18.98
1314.491;-19.32
1314.69;-19.72
1314.889;-20.18
1315.089;-20.72
1315.288;-21.33
1315.487;-22.0
1315.686;-22.74
1315.885;-23.51
1316.084;-24.31
1316.283;-25.07
1316.482;-25.75
1316.681;-26.24
1316.881;-26.45
1317.08;-26.39
1317.279;-26.03
1317.478;-25.49
1317.677;-24.85
1317.876;-24.17
1318.075;-23.53
1318.274;-22.91
1318.474;-22.36
1318.673;-21.89
1318.872;-21.46
1319.071;-21.13
1319.27;-20.82
1319.469;-20.59
1319.668;-20.42
1319.867;-20.29
1320.066;-20.23
1320.266;-20.2
1320.465;-20.24
1320.664;-20.31
1320.863;-20.41
1321.062;-20.57
1321.261;-20.74
1321.46;-20.97
1321.659;-21.2
1321.858;-21.47
1322.058;-21.75
1322.257;-22.04
1322.456;-22.34
1322.655;-22.61
1322.854;-22.88
1323.053;-23.12
1323.252;-23.32
1323.451;-23.5
1323.65;-23.62
1323.85;-23.72
1324.049;-23.77
1324.248;-23.79
1324.447;-23.8
1324.646;-23.78
1324.845;-23.78
1325.044;-23.76
1325.243;-23.77
1325.443;-23.78
1325.642;-23.83
1325.841;-23.91
1326.04;-24.01
1326.239;-24.15
1326.438;-24.31
1326.637;-24.51
1326.836;-24.75
1327.035;-25.02
1327.235;-25.34
1327.434;-25.65
1327.633;-26.02
1327.832;-26.39
1328.031;-26.76
1328.23;-27.15
1328.429;-27.51
1328.628;-27.86
1328.827;-28.14
1329.027;-28.37
1329.226;-28.57
1329.425;-28.63
1329.624;-28.66
1329.823;-28.61
1330.022;-28.53
1330.221;-28.4
1330.42;-28.25
1330.62;-28.11
1330.819;-27.96
1331.018;-27.84
1331.217;-27.73
1331.416;-27.66
1331.615;-27.63
1331.814;-27.63
1332.013;-27.71
1332.212;-27.79
1332.412;-27.95
1332.611;-28.16
1332.81;-28.42
1333.009;-28.75
1333.208;-29.12
1333.407;-29.58
1333.606;-30.09
1333.805;-30.68
1334.004;-31.36
1334.204;-32.13
1334.403;-33.01
1334.602;-33.97
1334.801;-35.07
1335.0;-36.28
1335.199;-37.6
1335.398;-39.3
1335.597;-40.33
1335.797;-41.32
1335.996;-41.7
1336.195;-41.36
1336.394;-40.48
1336.593;-39.42
1336.792;-38.37
1336.991;-37.4
1337.19;-36.58
1337.389;-35.73
1337.589;-35.26
1337.788;-34.76
1337.987;-34.38
1338.186;-34.06
1338.385;-33.84
1338.584;-33.7
1338.783;-33.62
1338.982;-33.63
1339.181;-33.68
1339.381;-33.81
1339.58;-33.99
1339.779;-34.25
1339.978;-34.58
1340.177;-34.96
1340.376;-35.43
1340.575;-35.94
1340.774;-36.52
1340.974;-37.17
1341.173;-37.89
1341.372;-38.87
1341.571;-39.58
1341.77;-40.53
1341.969;-41.53
1342.168;-42.55
1342.367;-43.53
1342.566;-44.38
1342.766;-45.01
1342.965;-45.3
1343.164;-45.26
1343.363;-44.93
1343.562;-44.44
1343.761;-43.9
1343.96;-43.36
1344.159;-42.87
1344.358;-42.43
1344.558;-42.08
1344.757;-41.79
1344.956;-41.57
1345.155;-41.44
1345.354;-41.35
1345.553;-41.37
1345.752;-41.43
1345.951;-41.57
1346.15;-41.79
1346.35;-42.05
1346.549;-42.41
1346.748;-42.78
1346.947;-43.24
1347.146;-43.74
1347.345;-44.29
1347.544;-44.94
1347.743;-45.62
1347.943;-46.33
1348.142;-47.0
1348.341;-47.64
1348.54;-48.17
1348.739;-48.66
1348.938;-48.84
1349.137;-48.91
1349.336;-48.81
1349.535;-48.56
1349.735;-48.23
1349.934;-47.89
1350.133;-47.53
1350.332;-47.25
1350.531;-46.93
1350.73;-46.62
1350.929;-46.27
1351.128;-46.09
1351.327;-45.94
1351.527;-45.86
1351.726;-45.9
1351.925;-45.92
1352.124;-46.01
1352.323;-46.13
1352.522;-46.36
1352.721;-46.59
1352.92;-46.89
1353.12;-47.34
1353.319;-47.7
1353.518;-48.19
1353.717;-48.9
1353.916;-49.34
1354.115;-50.0
1354.314;-50.8
1354.513;-51.66
1354.712;-52.66
1354.912;-53.73
1355.111;-54.73
1355.31;-55.69
1355.509;-56.37
1355.708;-57.05
1355.907;-57.48
1356.106;-57.42
1356.305;-57.04
1356.504;-56.45
1356.704;-55.68
1356.903;-55.1
1357.102;-54.79
1357.301;-54.32
1357.5;-53.84
1357.699;-53.47
1357.898;-53.08
1358.097;-52.76
1358.297;-52.63
1358.496;-52.62
1358.695;-52.58
1358.894;-52.6
1359.093;-52.7
1359.292;-52.76
1359.491;-53.18
1359.69;-53.63
1359.889;-54.03
1360.089;-54.4
1360.288;-54.77
1360.487;-55.15
1360.686;-55.79
1360.885;-56.67
1361.084;-57.61
1361.283;-58.76
1361.482;-59.6
1361.681;-60.55
1361.881;-61.51
1362.08;-62.45
1362.279;-63.42
1362.478;-63.83
1362.677;-63.77
1362.876;-63.12
1363.075;-62.32
1363.274;-61.38
1363.474;-60.66
1363.673;-59.99
1363.872;-59.46
1364.071;-59.04
1364.27;-58.7
1364.469;-58.54
1364.668;-58.66
1364.867;-58.54
1365.066;-58.24
1365.266;-58.22
1365.465;-58.05
1365.664;-58.06
1365.863;-58.1
1366.062;-58.17
1366.261;-58.28
1366.46;-58.54
1366.659;-58.94
1366.858;-59.46
1367.058;-59.99
1367.257;-60.54
1367.456;-61.27
1367.655;-62.01
1367.854;-62.93
1368.053;-63.81
1368.252;-64.6
1368.451;-65.69
1368.65;-66.65
1368.85;-67.61
1369.049;-68.43
1369.248;-69.09
1369.447;-69.17
1369.646;-69.25
1369.845;-69.32
1370.044;-69.07
1370.243;-68.46
1370.443;-67.81
1370.642;-67.24
1370.841;-66.97
1371.04;-66.64
1371.239;-66.26
1371.438;-65.8
1371.637;-65.43
1371.836;-65.15
1372.035;-65.0
1372.235;-65.01
1372.434;-64.99
1372.633;-64.88
1372.832;-64.86
1373.031;-64.84
1373.23;-64.97
1373.429;-65.12
1373.628;-65.21
1373.827;-65.29
1374.027;-65.49
1374.226;-65.68
1374.425;-65.88
1374.624;-66.04
1374.823;-66.29
1375.022;-66.54
1375.221;-66.61
1375.42;-66.8
1375.62;-66.92
1375.819;-67.15
1376.018;-67.25
1376.217;-67.49
1376.416;-67.65
1376.615;-67.78
1376.814;-67.97
1377.013;-68.39
1377.212;-68.71
1377.412;-68.89
1377.611;-69.29
1377.81;-69.42
1378.009;-69.84
1378.208;-70.26
1378.407;-70.92
1378.606;-71.34
1378.805;-72.02
1379.004;-73.05
1379.204;-73.6
1379.403;-74.22
1379.602;-74.69
1379.801;-75.06
1380.0;-75.58
1380.199;-75.78
1380.398;-76.69
1380.597;-76.47
1380.797;-76.91
1380.996;-76.43
1381.195;-75.61
1381.394;-74.88
1381.593;-74.09
1381.792;-73.63
1381.991;-72.68
1382.19;-72.58
1382.389;-72.41
1382.589;-72.63
1382.788;-72.62
1382.987;-72.78
1383.186;-72.12
1383.385;-71.87
1383.584;-71.39
1383.783;-71.27
1383.982;-71.36
1384.181;-71.53
1384.381;-71.56
1384.58;-71.78
1384.779;-71.92
1384.978;-72.24
1385.177;-72.75
1385.376;-73.12
1385.575;-73.16
1385.774;-73.77
1385.974;-74.5
1386.173;-74.63
1386.372;-75.21
1386.571;-76.29
1386.77;-75.97
1386.969;-77.06
1387.168;-77.12
1387.367;-77.36
1387.566;-77.98
1387.766;-77.84
1387.965;-78.49
1388.164;-78.38
1388.363;-77.82
1388.562;-78.8
1388.761;-76.98
1388.96;-75.89
1389.159;-75.72
1389.358;-75.48
1389.558;-75.4
1389.757;-74.97
1389.956;-74.88
1390.155;-74.83
1390.354;-74.84
1390.553;-74.56
1390.752;-74.48
1390.951;-74.33
1391.15;-74.15
1391.35;-74.31
1391.549;-74.24
1391.748;-74.37
1391.947;-74.98
1392.146;-75.25
1392.345;-75.98
1392.544;-75.89
1392.743;-76.42
1392.943;-76.88
1393.142;-76.68
1393.341;-76.49
1393.54;-76.93
1393.739;-77.03
1393.938;-78.11
1394.137;-77.37
1394.336;-77.54
1394.535;-78.67
1394.735;-80.66
1394.934;-78.96
1395.133;-79.46
1395.332;-79.78
1395.531;-79.92
1395.73;-80.57
1395.929;-79.92
1396.128;-79.89
1396.327;-78.26
1396.527;-78.96
1396.726;-80.4
1396.925;-79.89
1397.124;-78.42
1397.323;-79.6
1397.522;-78.84
1397.721;-78.32
1397.92;-78.47
1398.12;-79.14
1398.319;-78.19
1398.518;-77.53
1398.717;-78.08
1398.916;-77.68
1399.115;-77.36
1399.314;-77.46
1399.513;-77.93
1399.712;-77.75
1399.912;-78.03
1400.111;-78.38
1400.31;-78.43
1400.509;-77.44
1400.708;-79.51
1400.907;-78.76
1401.106;-78.2
1401.305;-77.93
1401.504;-77.3
1401.704;-78.54
1401.903;-78.48
1402.102;-78.05
1402.301;-78.97
1402.5;-78.59
1402.699;-79.47
1402.898;-79.18
1403.097;-79.37
1403.297;-79.18
1403.496;-79.51
1403.695;-79.93
1403.894;-80.01
1404.093;-80.01
1404.292;-79.93
1404.491;-80.54
1404.69;-79.68
1404.889;-81.77
1405.089;-82.07
1405.288;-80.25
1405.487;-81.18
1405.686;-80.76
1405.885;-81.23
1406.084;-80.54
1406.283;-79.72
1406.482;-80.29
1406.681;-81.56
1406.881;-82.02
1407.08;-80.55
1407.279;-81.78
1407.478;-79.94
1407.677;-79.32
1407.876;-81.14
1408.075;-80.02
1408.274;-80.34
1408.474;-79.25
1408.673;-79.69
1408.872;-80.34
1409.071;-79.52
1409.27;-81.24
1409.469;-80.68
1409.668;-80.42
1409.867;-80.77
1410.066;-80.77
1410.266;-82.81
1410.465;-79.62
1410.664;-79.94
1410.863;-79.62
1411.062;-80.14
1411.261;-82.53
1411.46;-79.94
1411.659;-79.48
1411.858;-79.25
1412.058;-82.26
1412.257;-81.56
1412.456;-79.19
1412.655;-79.94
1412.854;-79.52
1413.053;-79.91
1413.252;-80.95
1413.451;-81.0
1413.65;-80.15
1413.85;-79.49
1414.049;-80.78
1414.248;-81.15
1414.447;-79.49
1414.646;-80.51
1414.845;-80.35
1415.044;-81.11
1415.243;-82.09
1415.443;-80.96
1415.642;-80.56
1415.841;-79.88
1416.04;-79.49
1416.239;-81.73
1416.438;-79.49
1416.637;-80.07
1416.836;-80.35
1417.035;-82.54
1417.235;-80.78
1417.434;-81.25
1417.633;-81.57
1417.832;-82.21
1418.031;-80.91
1418.23;-80.87
1418.429;-80.78
1418.628;-80.03
1418.827;-81.91
1419.027;-80.56
1419.226;-80.19
1419.425;-80.31
1419.624;-78.96
1419.823;-79.77
1420.022;-80.07
1420.221;-81.73
1420.42;-80.91
1420.62;-79.36
1420.819;-79.63
1421.018;-78.96
1421.217;-80.56
1421.416;-79.14
1421.615;-79.12
1421.814;-79.0
1422.013;-78.65
1422.212;-79.96
1422.412;-80.74
1422.611;-79.31
1422.81;-81.42
1423.009;-80.61
1423.208;-79.54
1423.407;-79.03
1423.606;-80.52
1423.805;-79.85
1424.004;-81.69
1424.204;-80.61
1424.403;-79.54
1424.602;-81.8
1424.801;-80.04
1425.0;-79.54
