Wavelength (nm);Intensity (dBm)
1131.0;1131.0
1200.0;-62.32
1200.199;-62.28
1200.398;-62.21
1200.597;-62.16
1200.797;-62.12
1200.996;-62.14
1201.195;-62.09
1201.394;-61.93
1201.593;-61.89
1201.792;-61.87
1201.991;-61.82
1202.19;-61.69
1202.389;-61.6
1202.589;-61.59
1202.788;-61.49
1202.987;-61.44
1203.186;-61.34
1203.385;-61.22
1203.584;-61.24
1203.783;-61.22
1203.982;-61.09
1204.181;-61.01
1204.381;-61.01
1204.58;-61.03
1204.779;-60.98
1204.978;-60.94
1205.177;-60.96
1205.376;-60.95
1205.575;-60.99
1205.774;-60.96
1205.974;-60.98
1206.173;-61.07
1206.372;-61.08
1206.571;-61.09
1206.77;-61.08
1206.969;-61.11
1207.168;-61.13
1207.367;-61.06
1207.566;-61.07
1207.766;-61.05
1207.965;-61.0
1208.164;-60.96
1208.363;-60.86
1208.562;-60.8
1208.761;-60.76
1208.96;-60.67
1209.159;-60.58
1209.358;-60.49
1209.558;-60.47
1209.757;-60.37
1209.956;-60.28
1210.155;-60.25
1210.354;-60.18
1210.553;-60.13
1210.752;-60.06
1210.951;-59.99
1211.15;-59.96
1211.35;-59.93
1211.549;-59.91
1211.748;-59.85
1211.947;-59.86
1212.146;-59.89
1212.345;-59.89
1212.544;-59.86
1212.743;-59.87
1212.943;-59.9
1213.142;-59.9
1213.341;-59.88
1213.54;-59.9
1213.739;-59.92
1213.938;-59.88
1214.137;-59.85
1214.336;-59.78
1214.535;-59.76
1214.735;-59.7
1214.934;-59.61
1215.133;-59.52
1215.332;-59.43
1215.531;-59.38
1215.73;-59.28
1215.929;-59.16
1216.128;-59.07
1216.327;-59.0
1216.527;-58.92
1216.726;-58.82
1216.925;-58.72
1217.124;-58.67
1217.323;-58.6
1217.522;-58.55
1217.721;-58.48
1217.92;-58.46
1218.12;-58.45
1218.319;-58.41
1218.518;-58.44
1218.717;-58.46
1218.916;-58.47
1219.115;-58.5
1219.314;-58.53
1219.513;-58.6
1219.712;-58.63
1219.912;-58.68
1220.111;-58.69
1220.31;-58.72
1220.509;-58.72
1220.708;-58.7
1220.907;-58.65
1221.106;-58.6
1221.305;-58.53
1221.504;-58.44
1221.704;-58.3
1221.903;-58.18
1222.102;-58.04
1222.301;-57.9
1222.5;-57.75
1222.699;-57.57
1222.898;-57.44
1223.097;-57.3
1223.297;-57.14
1223.496;-57.01
1223.695;-56.9
1223.894;-56.79
1224.093;-56.68
1224.292;-56.61
1224.491;-56.56
1224.69;-56.5
1224.889;-56.46
1225.089;-56.45
1225.288;-56.45
1225.487;-56.47
1225.686;-56.5
1225.885;-56.55
1226.084;-56.63
1226.283;-56.7
1226.482;-56.76
1226.681;-56.83
1226.881;-56.92
1227.08;-56.97
1227.279;-56.97
1227.478;-56.98
1227.677;-56.95
1227.876;-56.9
1228.075;-56.81
1228.274;-56.68
1228.474;-56.54
1228.673;-56.37
1228.872;-56.18
1229.071;-56.0
1229.27;-55.81
1229.469;-55.59
1229.668;-55.42
1229.867;-55.22
1230.066;-55.1
1230.266;-54.93
1230.465;-54.8
1230.664;-54.69
1230.863;-54.61
1231.062;-54.55
1231.261;-54.51
1231.46;-54.52
1231.659;-54.52
1231.858;-54.55
1232.058;-54.62
1232.257;-54.69
1232.456;-54.81
1232.655;-54.9
1232.854;-55.0
1233.053;-55.12
1233.252;-55.22
1233.451;-55.3
1233.65;-55.36
1233.85;-55.4
1234.049;-55.39
1234.248;-55.34
1234.447;-55.25
1234.646;-55.13
1234.845;-54.99
1235.044;-54.8
1235.243;-54.6
1235.443;-54.39
1235.642;-54.16
1235.841;-53.93
1236.04;-53.71
1236.239;-53.5
1236.438;-53.32
1236.637;-53.12
1236.836;-52.97
1237.035;-52.83
1237.235;-52.71
1237.434;-52.61
1237.633;-52.53
1237.832;-52.5
1238.031;-52.45
1238.23;-52.44
1238.429;-52.44
1238.628;-52.46
1238.827;-52.49
1239.027;-52.52
1239.226;-52.55
1239.425;-52.59
1239.624;-52.6
1239.823;-52.62
1240.022;-52.61
1240.221;-52.57
1240.42;-52.52
1240.62;-52.44
1240.819;-52.34
1241.018;-52.19
1241.217;-52.05
1241.416;-51.9
1241.615;-51.73
1241.814;-51.58
1242.013;-51.41
1242.212;-51.28
1242.412;-51.16
1242.611;-51.03
1242.81;-50.95
1243.009;-50.86
1243.208;-50.8
1243.407;-50.77
1243.606;-50.74
1243.805;-50.74
1244.004;-50.71
1244.204;-50.69
1244.403;-50.69
1244.602;-50.64
1244.801;-50.58
1245.0;-50.48
1245.199;-50.35
1245.398;-50.18
1245.597;-49.93
1245.797;-49.69
1245.996;-49.37
1246.195;-49.04
1246.394;-48.69
1246.593;-48.31
1246.792;-47.96
1246.991;-47.56
1247.19;-47.2
1247.389;-46.86
1247.589;-46.51
1247.788;-46.2
1247.987;-45.9
1248.186;-45.6
1248.385;-45.41
1248.584;-45.19
1248.783;-45.02
1248.982;-44.87
1249.181;-44.75
1249.381;-44.64
1249.58;-44.56
1249.779;-44.5
1249.978;-44.43
1250.177;-44.41
1250.376;-44.35
1250.575;-44.28
1250.774;-44.21
1250.974;-44.12
1251.173;-44.01
1251.372;-43.84
1251.571;-43.67
1251.77;-43.44
1251.969;-43.18
1252.168;-42.91
1252.367;-42.6
1252.566;-42.31
1252.766;-42.0
1252.965;-41.71
1253.164;-41.43
1253.363;-41.15
1253.562;-40.93
1253.761;-40.72
1253.96;-40.56
1254.159;-40.44
1254.358;-40.36
1254.558;-40.36
1254.757;-40.38
1254.956;-40.48
1255.155;-40.67
1255.354;-40.9
1255.553;-41.24
1255.752;-41.63
1255.951;-42.12
1256.15;-42.72
1256.35;-43.38
1256.549;-44.13
1256.748;-44.84
1256.947;-45.49
1257.146;-45.92
1257.345;-45.95
1257.544;-45.56
1257.743;-44.74
1257.943;-43.69
1258.142;-42.55
1258.341;-41.4
1258.54;-40.33
1258.739;-39.3
1258.938;-38.36
1259.137;-37.53
1259.336;-36.75
1259.535;-36.08
1259.735;-35.34
1259.934;-34.91
1260.133;-34.43
1260.332;-34.02
1260.531;-33.68
1260.73;-33.4
1260.929;-33.19
1261.128;-33.03
1261.327;-32.95
1261.527;-32.94
1261.726;-33.0
1261.925;-33.14
1262.124;-33.34
1262.323;-33.64
1262.522;-34.03
1262.721;-34.52
1262.92;-35.12
1263.12;-35.83
1263.319;-36.71
1263.518;-37.73
1263.717;-39.19
1263.916;-40.31
1264.115;-41.65
1264.314;-42.72
1264.513;-42.91
1264.712;-42.02
1264.912;-40.49
1265.111;-38.79
1265.31;-37.2
1265.509;-35.54
1265.708;-34.49
1265.907;-33.39
1266.106;-32.42
1266.305;-31.57
1266.504;-30.84
1266.704;-30.21
1266.903;-29.65
1267.102;-29.18
1267.301;-28.78
1267.5;-28.47
1267.699;-28.22
1267.898;-28.02
1268.097;-27.91
1268.297;-27.84
1268.496;-27.85
1268.695;-27.91
1268.894;-28.0
1269.093;-28.15
1269.292;-28.35
1269.491;-28.59
1269.69;-28.87
1269.889;-29.15
1270.089;-29.44
1270.288;-29.71
1270.487;-29.95
1270.686;-30.11
1270.885;-30.14
1271.084;-30.08
1271.283;-29.86
1271.482;-29.54
1271.681;-29.13
1271.881;-28.63
1272.08;-28.12
1272.279;-27.59
1272.478;-27.08
1272.677;-26.61
1272.876;-26.16
1273.075;-25.71
1273.274;-25.43
1273.474;-25.14
1273.673;-24.9
1273.872;-24.7
1274.071;-24.6
1274.27;-24.51
1274.469;-24.51
1274.668;-24.56
1274.867;-24.68
1275.066;-24.87
1275.266;-25.13
1275.465;-25.48
1275.664;-25.9
1275.863;-26.43
1276.062;-27.1
1276.261;-27.87
1276.46;-29.03
1276.659;-29.97
1276.858;-31.32
1277.058;-32.89
1277.257;-34.63
1277.456;-36.19
1277.655;-36.73
1277.854;-35.79
1278.053;-33.96
1278.252;-32.05
1278.451;-30.31
1278.65;-28.8
1278.85;-27.52
1279.049;-26.4
1279.248;-25.3
1279.447;-24.61
1279.646;-23.92
1279.845;-23.3
1280.044;-22.77
1280.243;-22.34
1280.443;-21.96
1280.642;-21.67
1280.841;-21.43
1281.04;-21.26
1281.239;-21.17
1281.438;-21.11
1281.637;-21.13
1281.836;-21.2
1282.035;-21.32
1282.235;-21.52
1282.434;-21.76
1282.633;-22.08
1282.832;-22.43
1283.031;-22.83
1283.23;-23.27
1283.429;-23.72
1283.628;-24.17
1283.827;-24.55
1284.027;-24.85
1284.226;-25.01
1284.425;-24.98
1284.624;-24.79
1284.823;-24.41
1285.022;-23.93
1285.221;-23.36
1285.42;-22.76
1285.62;-22.17
1285.819;-21.58
1286.018;-21.04
1286.217;-20.56
1286.416;-20.11
1286.615;-19.74
1286.814;-19.4
1287.013;-19.14
1287.212;-18.92
1287.412;-18.77
1287.611;-18.68
1287.81;-18.64
1288.009;-18.67
1288.208;-18.75
1288.407;-18.89
1288.606;-19.11
1288.805;-19.37
1289.004;-19.71
1289.204;-20.11
1289.403;-20.56
1289.602;-21.08
1289.801;-21.63
1290.0;-22.22
1290.199;-22.78
1290.398;-23.3
1290.597;-23.74
1290.797;-23.96
1290.996;-23.97
1291.195;-23.73
1291.394;-23.3
1291.593;-22.71
1291.792;-22.06
1291.991;-21.41
1292.19;-20.74
1292.389;-20.14
1292.589;-19.57
1292.788;-19.07
1292.987;-18.66
1293.186;-18.28
1293.385;-17.98
1293.584;-17.73
1293.783;-17.56
1293.982;-17.46
1294.181;-17.4
1294.381;-17.43
1294.58;-17.5
1294.779;-17.65
1294.978;-17.88
1295.177;-18.18
1295.376;-18.57
1295.575;-19.02
1295.774;-19.58
1295.974;-20.24
1296.173;-21.02
1296.372;-21.96
1296.571;-23.03
1296.77;-24.32
1296.969;-25.81
1297.168;-27.51
1297.367;-29.75
1297.566;-30.86
1297.766;-31.2
1297.965;-30.13
1298.164;-28.39
1298.363;-26.61
1298.562;-24.81
1298.761;-23.71
1298.96;-22.59
1299.159;-21.64
1299.358;-20.83
1299.558;-20.15
1299.757;-19.58
1299.956;-19.13
1300.155;-18.76
1300.354;-18.48
1300.553;-18.28
1300.752;-18.15
1300.951;-18.12
1301.15;-18.15
1301.35;-18.25
1301.549;-18.45
1301.748;-18.7
1301.947;-19.06
1302.146;-19.49
1302.345;-20.02
1302.544;-20.67
1302.743;-21.43
1302.943;-22.35
1303.142;-23.41
1303.341;-24.66
1303.54;-26.13
1303.739;-27.8
1303.938;-29.97
1304.137;-31.05
1304.336;-31.35
1304.535;-30.31
1304.735;-28.64
1304.934;-26.91
1305.133;-25.15
1305.332;-24.05
1305.531;-22.95
1305.73;-22.01
1305.929;-21.2
1306.128;-20.54
1306.327;-19.96
1306.527;-19.5
1306.726;-19.12
1306.925;-18.8
1307.124;-18.59
1307.323;-18.41
1307.522;-18.31
1307.721;-18.27
1307.92;-18.27
1308.12;-18.35
1308.319;-18.43
1308.518;-18.59
1308.717;-18.76
1308.916;-18.96
1309.115;-19.2
1309.314;-19.42
1309.513;-19.66
1309.712;-19.86
1309.912;-20.03
1310.111;-20.17
1310.31;-20.23
1310.509;-20.26
1310.708;-20.21
1310.907;-20.11
1311.106;-19.98
1311.305;-19.8
1311.504;-19.62
1311.704;-19.41
1311.903;-19.22
1312.102;-19.04
1312.301;-18.88
1312.5;-18.78
1312.699;-18.68
1312.898;-18.64
1313.097;-18.63
1313.297;-18.68
1313.496;-18.8
1313.695;-18.95
1313.894;-19.18
1314.093;-19.46
1314.292;-19.81
1314.491;-20.24
1314.69;-20.73
1314.889;-21.32
1315.089;-21.98
1315.288;-22.75
1315.487;-23.63
1315.686;-24.6
1315.885;-25.68
1316.084;-26.79
1316.283;-27.88
1316.482;-28.94
1316.681;-29.23
1316.881;-29.11
1317.08;-28.46
1317.279;-27.53
1317.478;-26.48
1317.677;-25.3
1317.876;-24.52
1318.075;-23.7
1318.274;-22.97
1318.474;-22.33
1318.673;-21.82
1318.872;-21.35
1319.071;-21.0
1319.27;-20.69
1319.469;-20.45
1319.668;-20.3
1319.867;-20.18
1320.066;-20.14
1320.266;-20.14
1320.465;-20.2
1320.664;-20.31
1320.863;-20.46
1321.062;-20.68
1321.261;-20.92
1321.46;-21.22
1321.659;-21.53
1321.858;-21.88
1322.058;-22.26
1322.257;-22.65
1322.456;-23.06
1322.655;-23.43
1322.854;-23.79
1323.053;-24.11
1323.252;-24.37
1323.451;-24.57
1323.65;-24.68
1323.85;-24.72
1324.049;-24.69
1324.248;-24.61
1324.447;-24.51
1324.646;-24.36
1324.845;-24.23
1325.044;-24.08
1325.243;-23.96
1325.443;-23.87
1325.642;-23.81
1325.841;-23.79
1326.04;-23.79
1326.239;-23.85
1326.438;-23.94
1326.637;-24.08
1326.836;-24.28
1327.035;-24.5
1327.235;-24.78
1327.434;-25.09
1327.633;-25.44
1327.832;-25.84
1328.031;-26.26
1328.23;-26.72
1328.429;-27.17
1328.628;-27.64
1328.827;-28.07
1329.027;-28.57
1329.226;-28.85
1329.425;-29.12
1329.624;-29.3
1329.823;-29.38
1330.022;-29.37
1330.221;-29.3
1330.42;-29.14
1330.62;-28.97
1330.819;-28.76
1331.018;-28.56
1331.217;-28.37
1331.416;-28.2
1331.615;-28.08
1331.814;-27.98
1332.013;-27.94
1332.212;-27.94
1332.412;-27.99
1332.611;-28.11
1332.81;-28.26
1333.009;-28.48
1333.208;-28.74
1333.407;-29.07
1333.606;-29.47
1333.805;-29.93
1334.004;-30.47
1334.204;-31.07
1334.403;-31.75
1334.602;-32.51
1334.801;-33.36
1335.0;-34.31
1335.199;-35.32
1335.398;-36.41
1335.597;-37.49
1335.797;-38.73
1335.996;-39.34
1336.195;-39.77
1336.394;-39.76
1336.593;-39.33
1336.792;-38.67
1336.991;-37.9
1337.19;-37.13
1337.389;-36.43
1337.589;-35.7
1337.788;-35.26
1337.987;-34.81
1338.186;-34.46
1338.385;-34.16
1338.584;-33.95
1338.783;-33.81
1338.982;-33.74
1339.181;-33.75
1339.381;-33.8
1339.58;-33.94
1339.779;-34.11
1339.978;-34.36
1340.177;-34.68
1340.376;-35.05
1340.575;-35.49
1340.774;-35.97
1340.974;-36.51
1341.173;-37.11
1341.372;-37.76
1341.571;-38.62
1341.77;-39.22
1341.969;-39.99
1342.168;-40.74
1342.367;-41.47
1342.566;-42.08
1342.766;-42.56
1342.965;-42.86
1343.164;-42.94
1343.363;-42.87
1343.562;-42.63
1343.761;-42.34
1343.96;-42.0
1344.159;-41.67
1344.358;-41.37
1344.558;-41.11
1344.757;-40.9
1344.956;-40.73
1345.155;-40.63
1345.354;-40.6
1345.553;-40.61
1345.752;-40.71
1345.951;-40.86
1346.15;-41.08
1346.35;-41.36
1346.549;-41.71
1346.748;-42.13
1346.947;-42.6
1347.146;-43.15
1347.345;-43.74
1347.544;-44.46
1347.743;-45.26
1347.943;-46.11
1348.142;-47.0
1348.341;-47.93
1348.54;-49.0
1348.739;-49.64
1348.938;-50.29
1349.137;-50.7
1349.336;-50.77
1349.535;-50.59
1349.735;-50.15
1349.934;-49.63
1350.133;-49.07
1350.332;-48.58
1350.531;-48.08
1350.73;-47.58
1350.929;-47.15
1351.128;-46.76
1351.327;-46.49
1351.527;-46.27
1351.726;-46.25
1351.925;-46.21
1352.124;-46.2
1352.323;-46.29
1352.522;-46.46
1352.721;-46.65
1352.92;-46.9
1353.12;-47.31
1353.319;-47.66
1353.518;-48.13
1353.717;-48.85
1353.916;-49.28
1354.115;-49.98
1354.314;-50.84
1354.513;-51.77
1354.712;-52.91
1354.912;-54.17
1355.111;-55.51
1355.31;-56.9
1355.509;-58.17
1355.708;-59.73
1355.907;-60.29
1356.106;-60.29
1356.305;-59.55
1356.504;-58.48
1356.704;-57.27
1356.903;-56.12
1357.102;-55.66
1357.301;-54.93
1357.5;-54.23
1357.699;-53.69
1357.898;-53.17
1358.097;-52.74
1358.297;-52.5
1358.496;-52.4
1358.695;-52.29
1358.894;-52.25
1359.093;-52.29
1359.292;-52.3
1359.491;-52.67
1359.69;-53.08
1359.889;-53.45
1360.089;-53.79
1360.288;-54.13
1360.487;-54.52
1360.686;-55.15
1360.885;-56.04
1361.084;-57.03
1361.283;-58.06
1361.482;-59.61
1361.681;-60.46
1361.881;-61.78
1362.08;-63.28
1362.279;-64.98
1362.478;-66.02
1362.677;-66.31
1362.876;-65.72
1363.075;-64.49
1363.274;-63.11
1363.474;-61.98
1363.673;-60.96
1363.872;-60.11
1364.071;-59.48
1364.27;-58.95
1364.469;-58.63
1364.668;-58.63
1364.867;-58.37
1365.066;-57.96
1365.266;-57.85
1365.465;-57.62
1365.664;-57.57
1365.863;-57.55
1366.062;-57.57
1366.261;-57.65
1366.46;-57.85
1366.659;-58.23
1366.858;-58.73
1367.058;-59.24
1367.257;-59.8
1367.456;-60.54
1367.655;-61.31
1367.854;-62.23
1368.053;-63.23
1368.252;-64.16
1368.451;-65.39
1368.65;-66.57
1368.85;-68.06
1369.049;-69.36
1369.248;-70.3
1369.447;-71.0
1369.646;-71.05
1369.845;-71.02
1370.044;-70.23
1370.243;-69.08
1370.443;-68.06
1370.642;-67.11
1370.841;-66.64
1371.04;-66.16
1371.239;-65.53
1371.438;-64.96
1371.637;-64.48
1371.836;-64.09
1372.035;-63.96
1372.235;-63.91
1372.434;-63.84
1372.633;-63.75
1372.832;-63.73
1373.031;-63.7
1373.23;-63.85
1373.429;-64.07
1373.628;-64.24
1373.827;-64.41
1374.027;-64.76
1374.226;-65.02
1374.425;-65.36
1374.624;-65.83
1374.823;-66.25
1375.022;-66.64
1375.221;-66.96
1375.42;-67.3
1375.62;-67.66
1375.819;-67.93
1376.018;-68.33
1376.217;-68.59
1376.416;-68.88
1376.615;-69.19
1376.814;-69.52
1377.013;-69.69
1377.212;-69.97
1377.412;-70.16
1377.611;-70.43
1377.81;-70.49
1378.009;-70.71
1378.208;-70.98
1378.407;-71.24
1378.606;-71.8
1378.805;-72.41
1379.004;-72.6
1379.204;-72.93
1379.403;-72.97
1379.602;-73.22
1379.801;-73.7
1380.0;-74.01
1380.199;-73.96
1380.398;-74.15
1380.597;-74.71
1380.797;-75.65
1380.996;-75.08
1381.195;-75.08
1381.394;-74.36
1381.593;-73.54
1381.792;-73.35
1381.991;-72.62
1382.19;-72.49
1382.389;-72.35
1382.589;-72.31
1382.788;-72.59
1382.987;-72.43
1383.186;-71.72
1383.385;-71.18
1383.584;-70.86
1383.783;-70.84
1383.982;-71.01
1384.181;-71.16
1384.381;-70.91
1384.58;-70.96
1384.779;-71.23
1384.978;-71.46
1385.177;-71.84
1385.376;-72.28
1385.575;-72.18
1385.774;-72.42
1385.974;-72.98
1386.173;-73.57
1386.372;-73.89
1386.571;-74.59
1386.77;-74.98
1386.969;-75.65
1387.168;-76.39
1387.367;-76.69
1387.566;-77.1
1387.766;-77.55
1387.965;-77.77
1388.164;-79.22
1388.363;-78.8
1388.562;-77.32
1388.761;-76.94
1388.96;-77.44
1389.159;-77.32
1389.358;-76.9
1389.558;-76.44
1389.757;-76.28
1389.956;-76.28
1390.155;-75.56
1390.354;-75.43
1390.553;-75.19
1390.752;-75.23
1390.951;-74.87
1391.15;-75.19
1391.35;-75.06
1391.549;-75.44
1391.748;-75.09
1391.947;-75.05
1392.146;-75.55
1392.345;-76.7
1392.544;-76.8
1392.743;-77.69
1392.943;-76.82
1393.142;-76.95
1393.341;-77.8
1393.54;-77.87
1393.739;-77.87
1393.938;-78.53
1394.137;-78.96
1394.336;-78.78
1394.535;-80.04
1394.735;-81.03
1394.934;-80.36
1395.133;-79.71
1395.332;-83.58
1395.531;-81.38
1395.73;-81.54
1395.929;-81.33
1396.128;-81.33
1396.327;-81.03
1396.527;-83.41
1396.726;-82.51
1396.925;-79.36
1397.124;-78.21
1397.323;-77.99
1397.522;-78.75
1397.721;-78.07
1397.92;-77.9
1398.12;-78.11
1398.319;-77.83
1398.518;-77.91
1398.717;-77.53
1398.916;-77.16
1399.115;-77.0
1399.314;-77.72
1399.513;-77.34
1399.712;-78.27
1399.912;-77.66
1400.111;-77.4
1400.31;-78.12
1400.509;-78.15
1400.708;-79.0
1400.907;-78.48
1401.106;-78.7
1401.305;-78.7
1401.504;-77.75
1401.704;-78.54
1401.903;-78.54
1402.102;-79.65
1402.301;-77.91
1402.5;-79.06
1402.699;-79.21
1402.898;-78.7
1403.097;-79.86
1403.297;-79.28
1403.496;-79.09
1403.695;-80.54
1403.894;-80.49
1404.093;-79.93
1404.292;-79.93
1404.491;-79.68
1404.69;-82.52
1404.889;-81.83
1405.089;-81.44
1405.288;-82.87
1405.487;-79.86
1405.686;-81.95
1405.885;-79.0
1406.084;-82.01
1406.283;-80.13
1406.482;-81.49
1406.681;-83.43
1406.881;-80.26
1407.08;-82.39
1407.279;-81.35
1407.478;-81.56
1407.677;-80.5
1407.876;-80.42
1408.075;-81.78
1408.274;-80.5
1408.474;-81.14
1408.673;-80.68
1408.872;-81.0
1409.071;-80.42
1409.27;-82.2
1409.469;-81.45
1409.668;-80.77
1409.867;-79.94
1410.066;-79.66
1410.266;-80.9
1410.465;-79.45
1410.664;-81.1
1410.863;-80.77
1411.062;-79.73
1411.261;-81.5
1411.46;-81.05
1411.659;-79.87
1411.858;-79.66
1412.058;-79.52
1412.257;-79.94
1412.456;-80.34
1412.655;-80.68
1412.854;-80.18
1413.053;-81.24
1413.252;-80.77
1413.451;-79.66
1413.65;-80.31
1413.85;-80.39
1414.049;-80.51
1414.248;-81.36
1414.447;-79.36
1414.646;-81.57
1414.845;-83.12
1415.044;-80.27
1415.243;-79.81
1415.443;-80.96
1415.642;-80.87
1415.841;-79.81
1416.04;-79.92
1416.239;-80.91
1416.438;-79.53
1416.637;-79.92
1416.836;-79.49
1417.035;-81.01
1417.235;-79.14
1417.434;-81.15
1417.633;-81.11
1417.832;-80.87
1418.031;-78.93
1418.23;-81.51
1418.429;-80.51
1418.628;-79.77
1418.827;-80.73
1419.027;-79.53
1419.226;-80.39
1419.425;-80.31
1419.624;-79.36
1419.823;-79.43
1420.022;-79.84
1420.221;-80.03
1420.42;-82.4
1420.62;-80.23
1420.819;-79.02
1421.018;-79.84
1421.217;-78.24
1421.416;-79.43
1421.615;-79.82
1421.814;-79.47
1422.013;-80.61
1422.212;-82.28
1422.412;-79.4
1422.611;-80.04
1422.81;-80.04
1423.009;-79.71
1423.208;-79.78
1423.407;-80.04
1423.606;-81.58
1423.805;-80.44
1424.004;-80.36
1424.204;-79.15
1424.403;-79.82
1424.602;-80.24
1424.801;-78.71
1425.0;-80.65
