Wavelength (nm);Intensity (dBm)
1131.0;1131.0
1200.0;-62.17
1200.199;-62.16
1200.398;-62.08
1200.597;-62.01
1200.797;-61.92
1200.996;-61.91
1201.195;-61.89
1201.394;-61.74
1201.593;-61.67
1201.792;-61.67
1201.991;-61.66
1202.19;-61.52
1202.389;-61.42
1202.589;-61.42
1202.788;-61.35
1202.987;-61.31
1203.186;-61.22
1203.385;-61.19
1203.584;-61.17
1203.783;-61.15
1203.982;-61.05
1204.181;-60.98
1204.381;-61.01
1204.58;-61.04
1204.779;-60.99
1204.978;-60.97
1205.177;-61.0
1205.376;-61.05
1205.575;-61.1
1205.774;-61.06
1205.974;-61.12
1206.173;-61.21
1206.372;-61.23
1206.571;-61.2
1206.77;-61.21
1206.969;-61.28
1207.168;-61.27
1207.367;-61.22
1207.566;-61.19
1207.766;-61.15
1207.965;-61.15
1208.164;-61.05
1208.363;-60.97
1208.562;-60.9
1208.761;-60.84
1208.96;-60.75
1209.159;-60.59
1209.358;-60.51
1209.558;-60.46
1209.757;-60.37
1209.956;-60.25
1210.155;-60.15
1210.354;-60.08
1210.553;-60.03
1210.752;-59.97
1210.951;-59.86
1211.15;-59.82
1211.35;-59.79
1211.549;-59.79
1211.748;-59.73
1211.947;-59.75
1212.146;-59.79
1212.345;-59.79
1212.544;-59.8
1212.743;-59.82
1212.943;-59.9
1213.142;-59.96
1213.341;-59.94
1213.54;-59.98
1213.739;-60.02
1213.938;-60.04
1214.137;-60.0
1214.336;-59.99
1214.535;-60.0
1214.735;-59.96
1214.934;-59.9
1215.133;-59.82
1215.332;-59.77
1215.531;-59.73
1215.73;-59.6
1215.929;-59.49
1216.128;-59.36
1216.327;-59.28
1216.527;-59.16
1216.726;-59.02
1216.925;-58.9
1217.124;-58.78
1217.323;-58.66
1217.522;-58.55
1217.721;-58.45
1217.92;-58.39
1218.12;-58.33
1218.319;-58.25
1218.518;-58.21
1218.717;-58.22
1218.916;-58.24
1219.115;-58.22
1219.314;-58.27
1219.513;-58.32
1219.712;-58.37
1219.912;-58.45
1220.111;-58.49
1220.31;-58.54
1220.509;-58.61
1220.708;-58.64
1220.907;-58.66
1221.106;-58.7
1221.305;-58.69
1221.504;-58.66
1221.704;-58.62
1221.903;-58.57
1222.102;-58.5
1222.301;-58.4
1222.5;-58.28
1222.699;-58.16
1222.898;-58.06
1223.097;-57.9
1223.297;-57.73
1223.496;-57.55
1223.695;-57.37
1223.894;-57.22
1224.093;-57.02
1224.292;-56.86
1224.491;-56.71
1224.69;-56.57
1224.889;-56.44
1225.089;-56.31
1225.288;-56.22
1225.487;-56.16
1225.686;-56.09
1225.885;-56.06
1226.084;-56.05
1226.283;-56.06
1226.482;-56.06
1226.681;-56.09
1226.881;-56.15
1227.08;-56.17
1227.279;-56.21
1227.478;-56.26
1227.677;-56.29
1227.876;-56.34
1228.075;-56.34
1228.274;-56.35
1228.474;-56.36
1228.673;-56.33
1228.872;-56.31
1229.071;-56.25
1229.27;-56.21
1229.469;-56.14
1229.668;-56.05
1229.867;-55.96
1230.066;-55.87
1230.266;-55.76
1230.465;-55.6
1230.664;-55.53
1230.863;-55.46
1231.062;-55.38
1231.261;-55.32
1231.46;-55.27
1231.659;-55.22
1231.858;-55.2
1232.058;-55.2
1232.257;-55.23
1232.456;-55.26
1232.655;-55.29
1232.854;-55.35
1233.053;-55.43
1233.252;-55.48
1233.451;-55.51
1233.65;-55.56
1233.85;-55.6
1234.049;-55.59
1234.248;-55.59
1234.447;-55.52
1234.646;-55.45
1234.845;-55.36
1235.044;-55.22
1235.243;-55.09
1235.443;-54.92
1235.642;-54.74
1235.841;-54.55
1236.04;-54.35
1236.239;-54.16
1236.438;-53.95
1236.637;-53.75
1236.836;-53.56
1237.035;-53.37
1237.235;-53.22
1237.434;-53.03
1237.633;-52.91
1237.832;-52.8
1238.031;-52.69
1238.23;-52.63
1238.429;-52.55
1238.628;-52.53
1238.827;-52.5
1239.027;-52.49
1239.226;-52.5
1239.425;-52.49
1239.624;-52.5
1239.823;-52.49
1240.022;-52.48
1240.221;-52.45
1240.42;-52.39
1240.62;-52.34
1240.819;-52.24
1241.018;-52.11
1241.217;-51.99
1241.416;-51.84
1241.615;-51.69
1241.814;-51.52
1242.013;-51.36
1242.212;-51.23
1242.412;-51.07
1242.611;-50.93
1242.81;-50.79
1243.009;-50.66
1243.208;-50.56
1243.407;-50.45
1243.606;-50.36
1243.805;-50.27
1244.004;-50.19
1244.204;-50.13
1244.403;-50.08
1244.602;-50.03
1244.801;-49.97
1245.0;-49.92
1245.199;-49.89
1245.398;-49.81
1245.597;-49.72
1245.797;-49.61
1245.996;-49.47
1246.195;-49.32
1246.394;-49.12
1246.593;-48.9
1246.792;-48.64
1246.991;-48.37
1247.19;-48.11
1247.389;-47.84
1247.589;-47.57
1247.788;-47.31
1247.987;-47.07
1248.186;-46.88
1248.385;-46.7
1248.584;-46.56
1248.783;-46.45
1248.982;-46.39
1249.181;-46.38
1249.381;-46.39
1249.58;-46.46
1249.779;-46.54
1249.978;-46.66
1250.177;-46.83
1250.376;-47.0
1250.575;-47.18
1250.774;-47.33
1250.974;-47.45
1251.173;-47.49
1251.372;-47.42
1251.571;-47.25
1251.77;-46.92
1251.969;-46.47
1252.168;-45.92
1252.367;-45.2
1252.566;-44.64
1252.766;-43.94
1252.965;-43.28
1253.164;-42.61
1253.363;-41.99
1253.562;-41.4
1253.761;-40.86
1253.96;-40.39
1254.159;-39.94
1254.358;-39.56
1254.558;-39.23
1254.757;-38.95
1254.956;-38.75
1255.155;-38.59
1255.354;-38.49
1255.553;-38.44
1255.752;-38.46
1255.951;-38.55
1256.15;-38.69
1256.35;-38.92
1256.549;-39.21
1256.748;-39.57
1256.947;-40.03
1257.146;-40.55
1257.345;-41.17
1257.544;-41.84
1257.743;-42.56
1257.943;-43.28
1258.142;-43.86
1258.341;-44.19
1258.54;-44.12
1258.739;-43.61
1258.938;-42.77
1259.137;-41.75
1259.336;-40.67
1259.535;-39.6
1259.735;-38.6
1259.934;-37.67
1260.133;-36.84
1260.332;-36.09
1260.531;-35.3
1260.73;-34.83
1260.929;-34.3
1261.128;-33.86
1261.327;-33.48
1261.527;-33.17
1261.726;-32.93
1261.925;-32.73
1262.124;-32.61
1262.323;-32.55
1262.522;-32.55
1262.721;-32.63
1262.92;-32.74
1263.12;-32.94
1263.319;-33.19
1263.518;-33.53
1263.717;-33.93
1263.916;-34.37
1264.115;-34.89
1264.314;-35.44
1264.513;-35.99
1264.712;-36.5
1264.912;-36.87
1265.111;-37.04
1265.31;-36.92
1265.509;-36.55
1265.708;-35.95
1265.907;-35.19
1266.106;-34.38
1266.305;-33.54
1266.504;-32.76
1266.704;-32.02
1266.903;-31.33
1267.102;-30.73
1267.301;-30.18
1267.5;-29.71
1267.699;-29.32
1267.898;-28.98
1268.097;-28.73
1268.297;-28.51
1268.496;-28.39
1268.695;-28.32
1268.894;-28.3
1269.093;-28.37
1269.292;-28.5
1269.491;-28.72
1269.69;-29.01
1269.889;-29.38
1270.089;-29.86
1270.288;-30.41
1270.487;-31.1
1270.686;-31.89
1270.885;-32.8
1271.084;-33.79
1271.283;-34.79
1271.482;-35.65
1271.681;-36.12
1271.881;-35.97
1272.08;-35.24
1272.279;-34.1
1272.478;-32.86
1272.677;-31.63
1272.876;-30.48
1273.075;-29.45
1273.274;-28.52
1273.474;-27.7
1273.673;-26.96
1273.872;-26.32
1274.071;-25.69
1274.27;-25.3
1274.469;-24.91
1274.668;-24.57
1274.867;-24.3
1275.066;-24.1
1275.266;-23.96
1275.465;-23.9
1275.664;-23.87
1275.863;-23.93
1276.062;-24.04
1276.261;-24.23
1276.46;-24.5
1276.659;-24.82
1276.858;-25.24
1277.058;-25.75
1277.257;-26.34
1277.456;-27.04
1277.655;-27.83
1277.854;-28.94
1278.053;-29.75
1278.252;-30.77
1278.451;-31.71
1278.65;-32.35
1278.85;-32.48
1279.049;-31.98
1279.248;-31.04
1279.447;-29.88
1279.646;-28.68
1279.845;-27.55
1280.044;-26.5
1280.243;-25.43
1280.443;-24.73
1280.642;-24.0
1280.841;-23.34
1281.04;-22.77
1281.239;-22.29
1281.438;-21.85
1281.637;-21.51
1281.836;-21.2
1282.035;-20.96
1282.235;-20.78
1282.434;-20.64
1282.633;-20.58
1282.832;-20.54
1283.031;-20.55
1283.23;-20.61
1283.429;-20.71
1283.628;-20.85
1283.827;-21.0
1284.027;-21.19
1284.226;-21.41
1284.425;-21.62
1284.624;-21.84
1284.823;-22.02
1285.022;-22.18
1285.221;-22.3
1285.42;-22.34
1285.62;-22.33
1285.819;-22.22
1286.018;-22.06
1286.217;-21.83
1286.416;-21.55
1286.615;-21.27
1286.814;-20.94
1287.013;-20.61
1287.212;-20.29
1287.412;-19.98
1287.611;-19.72
1287.81;-19.45
1288.009;-19.24
1288.208;-19.05
1288.407;-18.89
1288.606;-18.79
1288.805;-18.7
1289.004;-18.66
1289.204;-18.64
1289.403;-18.65
1289.602;-18.7
1289.801;-18.76
1290.0;-18.85
1290.199;-18.94
1290.398;-19.05
1290.597;-19.17
1290.797;-19.26
1290.996;-19.34
1291.195;-19.38
1291.394;-19.4
1291.593;-19.38
1291.792;-19.32
1291.991;-19.24
1292.19;-19.1
1292.389;-18.95
1292.589;-18.76
1292.788;-18.56
1292.987;-18.38
1293.186;-18.19
1293.385;-18.02
1293.584;-17.84
1293.783;-17.7
1293.982;-17.61
1294.181;-17.53
1294.381;-17.5
1294.58;-17.48
1294.779;-17.52
1294.978;-17.61
1295.177;-17.74
1295.376;-17.93
1295.575;-18.14
1295.774;-18.43
1295.974;-18.76
1296.173;-19.15
1296.372;-19.61
1296.571;-20.1
1296.77;-20.66
1296.969;-21.24
1297.168;-21.85
1297.367;-22.48
1297.566;-23.02
1297.766;-23.49
1297.965;-23.77
1298.164;-23.83
1298.363;-23.65
1298.562;-23.24
1298.761;-22.7
1298.96;-22.05
1299.159;-21.39
1299.358;-20.73
1299.558;-20.08
1299.757;-19.51
1299.956;-18.97
1300.155;-18.51
1300.354;-18.09
1300.553;-17.72
1300.752;-17.43
1300.951;-17.18
1301.15;-17.01
1301.35;-16.87
1301.549;-16.81
1301.748;-16.78
1301.947;-16.81
1302.146;-16.92
1302.345;-17.05
1302.544;-17.27
1302.743;-17.53
1302.943;-17.86
1303.142;-18.28
1303.341;-18.75
1303.54;-19.32
1303.739;-19.97
1303.938;-20.72
1304.137;-21.61
1304.336;-22.6
1304.535;-23.79
1304.735;-25.11
1304.934;-26.65
1305.133;-28.7
1305.332;-30.01
1305.531;-31.11
1305.73;-31.03
1305.929;-29.86
1306.128;-28.23
1306.327;-26.64
1306.527;-24.99
1306.726;-23.96
1306.925;-22.91
1307.124;-21.99
1307.323;-21.19
1307.522;-20.51
1307.721;-19.92
1307.92;-19.42
1308.12;-18.99
1308.319;-18.63
1308.518;-18.32
1308.717;-18.07
1308.916;-17.86
1309.115;-17.7
1309.314;-17.59
1309.513;-17.5
1309.712;-17.46
1309.912;-17.44
1310.111;-17.46
1310.31;-17.51
1310.509;-17.59
1310.708;-17.69
1310.907;-17.81
1311.106;-17.98
1311.305;-18.17
1311.504;-18.39
1311.704;-18.64
1311.903;-18.89
1312.102;-19.19
1312.301;-19.53
1312.5;-19.9
1312.699;-20.31
1312.898;-20.75
1313.097;-21.24
1313.297;-21.79
1313.496;-22.4
1313.695;-23.08
1313.894;-23.82
1314.093;-24.67
1314.292;-25.6
1314.491;-26.67
1314.69;-27.87
1314.889;-29.49
1315.089;-30.64
1315.288;-31.97
1315.487;-32.96
1315.686;-33.11
1315.885;-32.38
1316.084;-31.12
1316.283;-29.72
1316.482;-28.4
1316.681;-27.17
1316.881;-25.93
1317.08;-25.17
1317.279;-24.36
1317.478;-23.66
1317.677;-23.04
1317.876;-22.51
1318.075;-22.05
1318.274;-21.68
1318.474;-21.38
1318.673;-21.13
1318.872;-20.96
1319.071;-20.84
1319.27;-20.78
1319.469;-20.76
1319.668;-20.81
1319.867;-20.93
1320.066;-21.09
1320.266;-21.32
1320.465;-21.6
1320.664;-21.95
1320.863;-22.37
1321.062;-22.84
1321.261;-23.41
1321.46;-24.04
1321.659;-24.76
1321.858;-25.56
1322.058;-26.44
1322.257;-27.41
1322.456;-28.42
1322.655;-29.64
1322.854;-30.33
1323.053;-30.96
1323.252;-31.18
1323.451;-30.95
1323.65;-30.37
1323.85;-29.57
1324.049;-28.74
1324.248;-27.91
1324.447;-27.15
1324.646;-26.48
1324.845;-25.78
1325.044;-25.38
1325.243;-24.96
1325.443;-24.64
1325.642;-24.37
1325.841;-24.18
1326.04;-24.06
1326.239;-23.99
1326.438;-24.0
1326.637;-24.06
1326.836;-24.19
1327.035;-24.37
1327.235;-24.62
1327.434;-24.94
1327.633;-25.31
1327.832;-25.76
1328.031;-26.27
1328.23;-26.86
1328.429;-27.54
1328.628;-28.27
1328.827;-29.29
1329.027;-30.05
1329.226;-31.06
1329.425;-32.12
1329.624;-33.23
1329.823;-34.29
1330.022;-35.19
1330.221;-35.76
1330.42;-35.86
1330.62;-35.53
1330.819;-34.89
1331.018;-34.11
1331.217;-33.33
1331.416;-32.56
1331.615;-31.9
1331.814;-31.29
1332.013;-30.79
1332.212;-30.37
1332.412;-30.03
1332.611;-29.78
1332.81;-29.57
1333.009;-29.44
1333.208;-29.36
1333.407;-29.34
1333.606;-29.39
1333.805;-29.47
1334.004;-29.62
1334.204;-29.79
1334.403;-30.01
1334.602;-30.28
1334.801;-30.58
1335.0;-30.94
1335.199;-31.29
1335.398;-31.69
1335.597;-32.09
1335.797;-32.51
1335.996;-32.94
1336.195;-33.35
1336.394;-33.74
1336.593;-34.09
1336.792;-34.4
1336.991;-34.67
1337.19;-34.88
1337.389;-35.05
1337.589;-35.15
1337.788;-35.21
1337.987;-35.24
1338.186;-35.24
1338.385;-35.25
1338.584;-35.22
1338.783;-35.23
1338.982;-35.23
1339.181;-35.25
1339.381;-35.3
1339.58;-35.36
1339.779;-35.46
1339.978;-35.57
1340.177;-35.72
1340.376;-35.88
1340.575;-36.07
1340.774;-36.29
1340.974;-36.48
1341.173;-36.72
1341.372;-36.93
1341.571;-37.16
1341.77;-37.39
1341.969;-37.6
1342.168;-37.81
1342.367;-37.96
1342.566;-38.12
1342.766;-38.25
1342.965;-38.35
1343.164;-38.47
1343.363;-38.52
1343.562;-38.59
1343.761;-38.63
1343.96;-38.7
1344.159;-38.75
1344.358;-38.82
1344.558;-38.92
1344.757;-39.03
1344.956;-39.16
1345.155;-39.31
1345.354;-39.49
1345.553;-39.73
1345.752;-39.99
1345.951;-40.32
1346.15;-40.67
1346.35;-41.08
1346.549;-41.56
1346.748;-42.08
1346.947;-42.67
1347.146;-43.32
1347.345;-44.05
1347.544;-44.89
1347.743;-45.84
1347.943;-46.91
1348.142;-48.06
1348.341;-49.67
1348.54;-50.8
1348.739;-52.34
1348.938;-53.96
1349.137;-55.47
1349.336;-56.4
1349.535;-56.45
1349.735;-55.67
1349.934;-54.54
1350.133;-53.4
1350.332;-52.4
1350.531;-51.47
1350.73;-50.66
1350.929;-49.97
1351.128;-49.41
1351.327;-48.98
1351.527;-48.69
1351.726;-48.54
1351.925;-48.42
1352.124;-48.39
1352.323;-48.43
1352.522;-48.59
1352.721;-48.76
1352.92;-49.02
1353.12;-49.46
1353.319;-49.82
1353.518;-50.35
1353.717;-50.95
1353.916;-51.57
1354.115;-52.31
1354.314;-53.22
1354.513;-54.19
1354.712;-55.33
1354.912;-56.49
1355.111;-57.54
1355.31;-58.35
1355.509;-58.65
1355.708;-58.8
1355.907;-58.49
1356.106;-57.72
1356.305;-56.76
1356.504;-55.66
1356.704;-54.88
1356.903;-54.18
1357.102;-53.83
1357.301;-53.33
1357.5;-52.87
1357.699;-52.51
1357.898;-52.14
1358.097;-51.85
1358.297;-51.72
1358.496;-51.73
1358.695;-51.69
1358.894;-51.74
1359.093;-51.86
1359.292;-51.93
1359.491;-52.38
1359.69;-52.82
1359.889;-53.25
1360.089;-53.64
1360.288;-54.03
1360.487;-54.46
1360.686;-55.1
1360.885;-56.01
1361.084;-56.98
1361.283;-57.95
1361.482;-59.33
1361.681;-60.04
1361.881;-61.02
1362.08;-61.98
1362.279;-62.95
1362.478;-63.24
1362.677;-62.99
1362.876;-62.21
1363.075;-61.31
1363.274;-60.32
1363.474;-59.57
1363.673;-58.91
1363.872;-58.34
1364.071;-57.94
1364.27;-57.6
1364.469;-57.45
1364.668;-57.61
1364.867;-57.48
1365.066;-57.22
1365.266;-57.2
1365.465;-57.06
1365.664;-57.11
1365.863;-57.19
1366.062;-57.32
1366.261;-57.46
1366.46;-57.77
1366.659;-58.22
1366.858;-58.81
1367.058;-59.38
1367.257;-60.0
1367.456;-60.84
1367.655;-61.64
1367.854;-62.59
1368.053;-63.5
1368.252;-64.24
1368.451;-65.21
1368.65;-65.81
1368.85;-66.3
1369.049;-66.4
1369.248;-66.1
1369.447;-65.56
1369.646;-65.08
1369.845;-64.83
1370.044;-64.26
1370.243;-63.75
1370.443;-63.15
1370.642;-62.64
1370.841;-62.54
1371.04;-62.36
1371.239;-62.18
1371.438;-61.86
1371.637;-61.64
1371.836;-61.49
1372.035;-61.57
1372.235;-61.76
1372.434;-61.89
1372.633;-62.07
1372.832;-62.26
1373.031;-62.49
1373.23;-62.91
1373.429;-63.39
1373.628;-63.99
1373.827;-64.58
1374.027;-65.22
1374.226;-65.95
1374.425;-66.93
1374.624;-67.94
1374.823;-68.87
1375.022;-70.21
1375.221;-71.39
1375.42;-72.67
1375.62;-73.6
1375.819;-74.74
1376.018;-74.88
1376.217;-74.37
1376.416;-73.61
1376.615;-72.75
1376.814;-72.1
1377.013;-71.38
1377.212;-70.67
1377.412;-70.07
1377.611;-69.48
1377.81;-69.07
1378.009;-68.71
1378.208;-68.37
1378.407;-68.24
1378.606;-68.23
1378.805;-68.47
1379.004;-68.63
1379.204;-68.51
1379.403;-68.58
1379.602;-68.49
1379.801;-68.75
1380.0;-68.95
1380.199;-69.3
1380.398;-69.89
1380.597;-70.59
1380.797;-71.39
1380.996;-71.87
1381.195;-72.47
1381.394;-72.59
1381.593;-72.64
1381.792;-73.05
1381.991;-73.11
1382.19;-73.46
1382.389;-73.61
1382.589;-74.29
1382.788;-74.42
1382.987;-74.83
1383.186;-74.09
1383.385;-73.46
1383.584;-73.07
1383.783;-72.63
1383.982;-72.54
1384.181;-72.19
1384.381;-71.9
1384.58;-71.51
1384.779;-71.51
1384.978;-71.65
1385.177;-71.55
1385.376;-71.54
1385.575;-71.45
1385.774;-71.54
1385.974;-71.3
1386.173;-71.49
1386.372;-71.65
1386.571;-71.93
1386.77;-71.98
1386.969;-72.34
1387.168;-72.34
1387.367;-72.82
1387.566;-73.06
1387.766;-73.78
1387.965;-74.0
1388.164;-74.11
1388.363;-74.51
1388.562;-75.16
1388.761;-74.94
1388.96;-74.98
1389.159;-75.44
1389.358;-75.45
1389.558;-76.7
1389.757;-76.87
1389.956;-76.74
1390.155;-76.94
1390.354;-76.83
1390.553;-77.68
1390.752;-77.06
1390.951;-78.08
1391.15;-77.89
1391.35;-77.79
1391.549;-79.6
1391.748;-78.53
1391.947;-78.75
1392.146;-78.99
1392.345;-81.08
1392.544;-79.96
1392.743;-81.12
1392.943;-81.54
1393.142;-80.24
1393.341;-80.66
1393.54;-79.71
1393.739;-80.66
1393.938;-82.86
1394.137;-82.0
1394.336;-81.28
1394.535;-79.4
1394.735;-79.81
1394.934;-80.36
1395.133;-80.12
1395.332;-78.75
1395.531;-77.71
1395.73;-78.45
1395.929;-77.69
1396.128;-77.45
1396.327;-78.53
1396.527;-78.21
1396.726;-78.26
1396.925;-78.09
1397.124;-76.61
1397.323;-77.07
1397.522;-76.73
1397.721;-76.34
1397.92;-76.4
1398.12;-76.93
1398.319;-75.9
1398.518;-76.41
1398.717;-76.33
1398.916;-76.46
1399.115;-76.27
1399.314;-77.08
1399.513;-77.63
1399.712;-77.75
1399.912;-77.4
1400.111;-77.95
1400.31;-76.74
1400.509;-77.95
1400.708;-78.03
1400.907;-78.22
1401.106;-77.95
1401.305;-77.98
1401.504;-78.4
1401.704;-78.48
1401.903;-78.7
1402.102;-78.59
1402.301;-79.15
1402.5;-78.33
1402.699;-78.48
1402.898;-79.72
1403.097;-78.73
1403.297;-78.88
1403.496;-79.44
1403.695;-78.3
1403.894;-78.82
1404.093;-80.17
1404.292;-79.9
1404.491;-80.76
1404.69;-79.51
1404.889;-81.29
1405.089;-80.71
1405.288;-79.9
1405.487;-80.29
1405.686;-81.66
1405.885;-80.33
1406.084;-79.79
1406.283;-79.68
1406.482;-80.76
1406.681;-81.4
1406.881;-81.24
1407.08;-81.9
1407.279;-80.59
1407.478;-82.53
1407.677;-81.5
1407.876;-81.78
1408.075;-81.45
1408.274;-80.81
1408.474;-80.18
1408.673;-81.45
1408.872;-82.2
1409.071;-81.4
1409.27;-81.45
1409.469;-81.24
1409.668;-80.38
1409.867;-80.42
1410.066;-80.72
1410.266;-81.56
1410.465;-80.1
1410.664;-80.42
1410.863;-80.55
1411.062;-80.55
1411.261;-79.69
1411.46;-81.45
1411.659;-79.42
1411.858;-80.42
1412.058;-79.66
1412.257;-81.9
1412.456;-81.05
1412.655;-80.02
1412.854;-80.1
1413.053;-81.35
1413.252;-80.55
1413.451;-83.27
1413.65;-83.2
1413.85;-80.73
1414.049;-80.96
1414.248;-80.96
1414.447;-79.77
1414.646;-79.92
1414.845;-80.43
1415.044;-83.52
1415.243;-80.73
1415.443;-80.78
1415.642;-81.57
1415.841;-80.64
1416.04;-79.43
1416.239;-81.73
1416.438;-80.69
1416.637;-82.54
1416.836;-80.35
1417.035;-80.39
1417.235;-79.53
1417.434;-79.49
1417.633;-79.53
1417.832;-80.35
1418.031;-80.35
1418.23;-83.44
1418.429;-81.25
1418.628;-81.68
1418.827;-80.19
1419.027;-80.35
1419.226;-79.92
1419.425;-80.73
1419.624;-81.2
1419.823;-80.07
1420.022;-81.11
1420.221;-83.28
1420.42;-78.9
1420.62;-79.88
1420.819;-79.53
1421.018;-81.06
1421.217;-80.47
1421.416;-81.57
1421.615;-80.12
1421.814;-80.57
1422.013;-78.91
1422.212;-81.02
1422.412;-79.06
1422.611;-79.96
1422.81;-79.18
1423.009;-79.21
1423.208;-79.82
1423.407;-82.55
1423.606;-79.4
1423.805;-79.75
1424.004;-81.58
1424.204;-80.79
1424.403;-80.4
1424.602;-79.85
1424.801;-81.02
1425.0;-79.27
