Wavelength (nm);Intensity (dBm)
1131.0;1131.0
1200.0;-62.31
1200.199;-62.25
1200.398;-62.21
1200.597;-62.15
1200.797;-62.12
1200.996;-62.1
1201.195;-62.02
1201.394;-61.95
1201.593;-61.86
1201.792;-61.86
1201.991;-61.81
1202.19;-61.65
1202.389;-61.58
1202.589;-61.55
1202.788;-61.51
1202.987;-61.44
1203.186;-61.34
1203.385;-61.27
1203.584;-61.22
1203.783;-61.21
1203.982;-61.1
1204.181;-61.03
1204.381;-61.06
1204.58;-61.04
1204.779;-61.0
1204.978;-60.94
1205.177;-60.98
1205.376;-61.0
1205.575;-61.04
1205.774;-61.02
1205.974;-61.07
1206.173;-61.11
1206.372;-61.15
1206.571;-61.1
1206.77;-61.09
1206.969;-61.16
1207.168;-61.15
1207.367;-61.1
1207.566;-61.06
1207.766;-61.03
1207.965;-61.01
1208.164;-60.93
1208.363;-60.85
1208.562;-60.77
1208.761;-60.73
1208.96;-60.66
1209.159;-60.54
1209.358;-60.47
1209.558;-60.43
1209.757;-60.34
1209.956;-60.24
1210.155;-60.18
1210.354;-60.17
1210.553;-60.12
1210.752;-60.03
1210.951;-59.98
1211.15;-59.97
1211.35;-59.96
1211.549;-59.91
1211.748;-59.87
1211.947;-59.9
1212.146;-59.91
1212.345;-59.9
1212.544;-59.9
1212.743;-59.9
1212.943;-59.96
1213.142;-59.95
1213.341;-59.95
1213.54;-59.92
1213.739;-59.95
1213.938;-59.92
1214.137;-59.87
1214.336;-59.81
1214.535;-59.77
1214.735;-59.71
1214.934;-59.62
1215.133;-59.51
1215.332;-59.44
1215.531;-59.37
1215.73;-59.26
1215.929;-59.17
1216.128;-59.05
1216.327;-58.99
1216.527;-58.91
1216.726;-58.81
1216.925;-58.73
1217.124;-58.66
1217.323;-58.62
1217.522;-58.54
1217.721;-58.49
1217.92;-58.47
1218.12;-58.46
1218.319;-58.45
1218.518;-58.43
1218.717;-58.48
1218.916;-58.51
1219.115;-58.52
1219.314;-58.57
1219.513;-58.64
1219.712;-58.69
1219.912;-58.73
1220.111;-58.74
1220.31;-58.78
1220.509;-58.78
1220.708;-58.77
1220.907;-58.72
1221.106;-58.64
1221.305;-58.58
1221.504;-58.45
1221.704;-58.34
1221.903;-58.21
1222.102;-58.07
1222.301;-57.94
1222.5;-57.74
1222.699;-57.58
1222.898;-57.45
1223.097;-57.3
1223.297;-57.16
1223.496;-57.02
1223.695;-56.91
1223.894;-56.81
1224.093;-56.7
1224.292;-56.64
1224.491;-56.56
1224.69;-56.52
1224.889;-56.48
1225.089;-56.46
1225.288;-56.48
1225.487;-56.49
1225.686;-56.52
1225.885;-56.57
1226.084;-56.64
1226.283;-56.72
1226.482;-56.76
1226.681;-56.83
1226.881;-56.91
1227.08;-56.93
1227.279;-56.96
1227.478;-56.94
1227.677;-56.89
1227.876;-56.84
1228.075;-56.71
1228.274;-56.61
1228.474;-56.45
1228.673;-56.29
1228.872;-56.11
1229.071;-55.91
1229.27;-55.7
1229.469;-55.52
1229.668;-55.36
1229.867;-55.18
1230.066;-55.04
1230.266;-54.89
1230.465;-54.75
1230.664;-54.68
1230.863;-54.61
1231.062;-54.56
1231.261;-54.54
1231.46;-54.54
1231.659;-54.58
1231.858;-54.61
1232.058;-54.69
1232.257;-54.76
1232.456;-54.87
1232.655;-54.98
1232.854;-55.08
1233.053;-55.19
1233.252;-55.29
1233.451;-55.36
1233.65;-55.42
1233.85;-55.43
1234.049;-55.41
1234.248;-55.35
1234.447;-55.23
1234.646;-55.1
1234.845;-54.94
1235.044;-54.74
1235.243;-54.52
1235.443;-54.29
1235.642;-54.09
1235.841;-53.84
1236.04;-53.64
1236.239;-53.43
1236.438;-53.24
1236.637;-53.08
1236.836;-52.92
1237.035;-52.8
1237.235;-52.69
1237.434;-52.59
1237.633;-52.54
1237.832;-52.5
1238.031;-52.48
1238.23;-52.47
1238.429;-52.48
1238.628;-52.52
1238.827;-52.54
1239.027;-52.58
1239.226;-52.61
1239.425;-52.64
1239.624;-52.67
1239.823;-52.66
1240.022;-52.67
1240.221;-52.61
1240.42;-52.54
1240.62;-52.46
1240.819;-52.34
1241.018;-52.21
1241.217;-52.04
1241.416;-51.89
1241.615;-51.73
1241.814;-51.56
1242.013;-51.42
1242.212;-51.28
1242.412;-51.16
1242.611;-51.04
1242.81;-50.95
1243.009;-50.89
1243.208;-50.83
1243.407;-50.8
1243.606;-50.77
1243.805;-50.76
1244.004;-50.75
1244.204;-50.72
1244.403;-50.7
1244.602;-50.64
1244.801;-50.55
1245.0;-50.45
1245.199;-50.3
1245.398;-50.1
1245.597;-49.84
1245.797;-49.56
1245.996;-49.26
1246.195;-48.91
1246.394;-48.56
1246.593;-48.19
1246.792;-47.82
1246.991;-47.45
1247.19;-47.09
1247.389;-46.75
1247.589;-46.42
1247.788;-46.12
1247.987;-45.85
1248.186;-45.56
1248.385;-45.39
1248.584;-45.18
1248.783;-45.03
1248.982;-44.89
1249.181;-44.77
1249.381;-44.69
1249.58;-44.6
1249.779;-44.53
1249.978;-44.47
1250.177;-44.41
1250.376;-44.37
1250.575;-44.27
1250.774;-44.18
1250.974;-44.06
1251.173;-43.9
1251.372;-43.72
1251.571;-43.5
1251.77;-43.26
1251.969;-42.98
1252.168;-42.69
1252.367;-42.4
1252.566;-42.09
1252.766;-41.79
1252.965;-41.5
1253.164;-41.23
1253.363;-40.99
1253.562;-40.78
1253.761;-40.61
1253.96;-40.47
1254.159;-40.37
1254.358;-40.34
1254.558;-40.36
1254.757;-40.44
1254.956;-40.58
1255.155;-40.8
1255.354;-41.1
1255.553;-41.47
1255.752;-41.95
1255.951;-42.49
1256.15;-43.14
1256.35;-43.85
1256.549;-44.61
1256.748;-45.32
1256.947;-45.85
1257.146;-46.06
1257.345;-45.81
1257.544;-45.14
1257.743;-44.17
1257.943;-43.03
1258.142;-41.89
1258.341;-40.77
1258.54;-39.73
1258.739;-38.78
1258.938;-37.89
1259.137;-37.11
1259.336;-36.39
1259.535;-35.65
1259.735;-35.18
1259.934;-34.68
1260.133;-34.27
1260.332;-33.89
1260.531;-33.6
1260.73;-33.35
1260.929;-33.17
1261.128;-33.08
1261.327;-33.03
1261.527;-33.08
1261.726;-33.18
1261.925;-33.37
1262.124;-33.65
1262.323;-34.0
1262.522;-34.47
1262.721;-35.03
1262.92;-35.72
1263.12;-36.55
1263.319;-37.53
1263.518;-38.96
1263.717;-40.03
1263.916;-41.4
1264.115;-42.58
1264.314;-43.02
1264.513;-42.4
1264.712;-40.96
1264.912;-39.28
1265.111;-37.65
1265.31;-36.17
1265.509;-34.66
1265.708;-33.73
1265.907;-32.75
1266.106;-31.86
1266.305;-31.1
1266.504;-30.44
1266.704;-29.86
1266.903;-29.38
1267.102;-28.96
1267.301;-28.63
1267.5;-28.36
1267.699;-28.16
1267.898;-28.03
1268.097;-27.96
1268.297;-27.94
1268.496;-27.99
1268.695;-28.09
1268.894;-28.25
1269.093;-28.44
1269.292;-28.69
1269.491;-28.97
1269.69;-29.27
1269.889;-29.59
1270.089;-29.87
1270.288;-30.13
1270.487;-30.32
1270.686;-30.4
1270.885;-30.36
1271.084;-30.17
1271.283;-29.86
1271.482;-29.43
1271.681;-28.93
1271.881;-28.4
1272.08;-27.85
1272.279;-27.33
1272.478;-26.81
1272.677;-26.35
1272.876;-25.86
1273.075;-25.56
1273.274;-25.25
1273.474;-24.99
1273.673;-24.79
1273.872;-24.64
1274.071;-24.56
1274.27;-24.53
1274.469;-24.56
1274.668;-24.68
1274.867;-24.84
1275.066;-25.09
1275.266;-25.4
1275.465;-25.81
1275.664;-26.33
1275.863;-26.93
1276.062;-27.69
1276.261;-28.76
1276.46;-29.69
1276.659;-30.94
1276.858;-32.45
1277.058;-34.11
1277.257;-35.7
1277.456;-36.52
1277.655;-35.91
1277.854;-34.29
1278.053;-32.41
1278.252;-30.65
1278.451;-29.12
1278.65;-27.79
1278.85;-26.65
1279.049;-25.51
1279.248;-24.82
1279.447;-24.09
1279.646;-23.46
1279.845;-22.93
1280.044;-22.46
1280.243;-22.09
1280.443;-21.77
1280.642;-21.52
1280.841;-21.35
1281.04;-21.22
1281.239;-21.17
1281.438;-21.17
1281.637;-21.23
1281.836;-21.35
1282.035;-21.52
1282.235;-21.76
1282.434;-22.04
1282.633;-22.39
1282.832;-22.79
1283.031;-23.2
1283.23;-23.65
1283.429;-24.07
1283.628;-24.47
1283.827;-24.78
1284.027;-24.94
1284.226;-24.96
1284.425;-24.77
1284.624;-24.44
1284.823;-23.97
1285.022;-23.41
1285.221;-22.84
1285.42;-22.23
1285.62;-21.67
1285.819;-21.13
1286.018;-20.63
1286.217;-20.2
1286.416;-19.8
1286.615;-19.49
1286.814;-19.21
1287.013;-18.99
1287.212;-18.84
1287.412;-18.74
1287.611;-18.71
1287.81;-18.73
1288.009;-18.81
1288.208;-18.98
1288.407;-19.18
1288.606;-19.46
1288.805;-19.8
1289.004;-20.21
1289.204;-20.7
1289.403;-21.23
1289.602;-21.83
1289.801;-22.45
1290.0;-23.09
1290.199;-23.7
1290.398;-24.18
1290.597;-24.5
1290.797;-24.54
1290.996;-24.31
1291.195;-23.86
1291.394;-23.24
1291.593;-22.54
1291.792;-21.8
1291.991;-21.11
1292.19;-20.46
1292.389;-19.87
1292.589;-19.34
1292.788;-18.88
1292.987;-18.49
1293.186;-18.17
1293.385;-17.91
1293.584;-17.73
1293.783;-17.6
1293.982;-17.55
1294.181;-17.56
1294.381;-17.64
1294.58;-17.78
1294.779;-17.99
1294.978;-18.3
1295.177;-18.67
1295.376;-19.14
1295.575;-19.69
1295.774;-20.35
1295.974;-21.13
1296.173;-22.05
1296.372;-23.14
1296.571;-24.38
1296.77;-25.84
1296.969;-27.48
1297.168;-29.5
1297.367;-30.4
1297.566;-30.51
1297.766;-29.45
1297.965;-27.83
1298.164;-26.18
1298.363;-24.49
1298.562;-23.43
1298.761;-22.35
1298.96;-21.42
1299.159;-20.66
1299.358;-20.0
1299.558;-19.45
1299.757;-19.0
1299.956;-18.65
1300.155;-18.38
1300.354;-18.18
1300.553;-18.07
1300.752;-18.03
1300.951;-18.06
1301.15;-18.19
1301.35;-18.37
1301.549;-18.66
1301.748;-19.0
1301.947;-19.44
1302.146;-19.99
1302.345;-20.63
1302.544;-21.42
1302.743;-22.33
1302.943;-23.41
1303.142;-24.7
1303.341;-26.21
1303.54;-27.97
1303.739;-30.34
1303.938;-31.59
1304.137;-32.03
1304.336;-30.91
1304.535;-29.08
1304.735;-27.24
1304.934;-25.37
1305.133;-24.26
1305.332;-23.14
1305.531;-22.18
1305.73;-21.38
1305.929;-20.68
1306.128;-20.13
1306.327;-19.66
1306.527;-19.29
1306.726;-19.01
1306.925;-18.78
1307.124;-18.63
1307.323;-18.55
1307.522;-18.53
1307.721;-18.57
1307.92;-18.64
1308.12;-18.79
1308.319;-18.96
1308.518;-19.18
1308.717;-19.43
1308.916;-19.68
1309.115;-19.96
1309.314;-20.21
1309.513;-20.44
1309.712;-20.63
1309.912;-20.74
1310.111;-20.8
1310.31;-20.75
1310.509;-20.65
1310.708;-20.48
1310.907;-20.24
1311.106;-19.99
1311.305;-19.7
1311.504;-19.43
1311.704;-19.16
1311.903;-18.91
1312.102;-18.7
1312.301;-18.51
1312.5;-18.38
1312.699;-18.28
1312.898;-18.23
1313.097;-18.23
1313.297;-18.28
1313.496;-18.41
1313.695;-18.56
1313.894;-18.78
1314.093;-19.07
1314.292;-19.41
1314.491;-19.84
1314.69;-20.31
1314.889;-20.86
1315.089;-21.49
1315.288;-22.19
1315.487;-22.98
1315.686;-23.79
1315.885;-24.66
1316.084;-25.49
1316.283;-26.22
1316.482;-26.76
1316.681;-26.97
1316.881;-26.86
1317.08;-26.41
1317.279;-25.78
1317.478;-25.05
1317.677;-24.3
1317.876;-23.6
1318.075;-22.93
1318.274;-22.35
1318.474;-21.83
1318.673;-21.4
1318.872;-21.03
1319.071;-20.72
1319.27;-20.49
1319.469;-20.29
1319.668;-20.18
1319.867;-20.1
1320.066;-20.08
1320.266;-20.12
1320.465;-20.19
1320.664;-20.32
1320.863;-20.48
1321.062;-20.68
1321.261;-20.93
1321.46;-21.19
1321.659;-21.5
1321.858;-21.8
1322.058;-22.13
1322.257;-22.46
1322.456;-22.77
1322.655;-23.08
1322.854;-23.34
1323.053;-23.57
1323.252;-23.74
1323.451;-23.86
1323.65;-23.93
1323.85;-23.94
1324.049;-23.93
1324.248;-23.87
1324.447;-23.81
1324.646;-23.73
1324.845;-23.66
1325.044;-23.62
1325.243;-23.57
1325.443;-23.58
1325.642;-23.61
1325.841;-23.67
1326.04;-23.78
1326.239;-23.91
1326.438;-24.1
1326.637;-24.31
1326.836;-24.58
1327.035;-24.89
1327.235;-25.23
1327.434;-25.63
1327.633;-26.04
1327.832;-26.49
1328.031;-26.95
1328.23;-27.43
1328.429;-27.91
1328.628;-28.34
1328.827;-28.81
1329.027;-29.05
1329.226;-29.29
1329.425;-29.4
1329.624;-29.43
1329.823;-29.37
1330.022;-29.23
1330.221;-29.06
1330.42;-28.83
1330.62;-28.61
1330.819;-28.4
1331.018;-28.2
1331.217;-28.05
1331.416;-27.91
1331.615;-27.84
1331.814;-27.79
1332.013;-27.8
1332.212;-27.87
1332.412;-27.99
1332.611;-28.19
1332.81;-28.4
1333.009;-28.7
1333.208;-29.05
1333.407;-29.47
1333.606;-29.97
1333.805;-30.53
1334.004;-31.18
1334.204;-31.9
1334.403;-32.71
1334.602;-33.62
1334.801;-34.61
1335.0;-35.72
1335.199;-36.86
1335.398;-38.03
1335.597;-39.29
1335.797;-39.86
1335.996;-40.16
1336.195;-39.94
1336.394;-39.34
1336.593;-38.52
1336.792;-37.67
1336.991;-36.86
1337.19;-36.0
1337.389;-35.5
1337.589;-34.96
1337.788;-34.53
1337.987;-34.17
1338.186;-33.9
1338.385;-33.69
1338.584;-33.57
1338.783;-33.52
1338.982;-33.53
1339.181;-33.62
1339.381;-33.75
1339.58;-33.96
1339.779;-34.23
1339.978;-34.56
1340.177;-34.97
1340.376;-35.43
1340.575;-35.97
1340.774;-36.55
1340.974;-37.21
1341.173;-37.94
1341.372;-38.9
1341.571;-39.6
1341.77;-40.5
1341.969;-41.45
1342.168;-42.35
1342.367;-43.19
1342.566;-43.85
1342.766;-44.27
1342.965;-44.41
1343.164;-44.26
1343.363;-43.94
1343.562;-43.48
1343.761;-43.01
1343.96;-42.56
1344.159;-42.14
1344.358;-41.79
1344.558;-41.5
1344.757;-41.28
1344.956;-41.13
1345.155;-41.04
1345.354;-41.03
1345.553;-41.08
1345.752;-41.21
1345.951;-41.4
1346.15;-41.65
1346.35;-42.0
1346.549;-42.39
1346.748;-42.85
1346.947;-43.35
1347.146;-43.94
1347.345;-44.57
1347.544;-45.3
1347.743;-46.1
1347.943;-46.9
1348.142;-47.68
1348.341;-48.57
1348.54;-49.04
1348.739;-49.45
1348.938;-49.67
1349.137;-49.66
1349.336;-49.4
1349.535;-49.04
1349.735;-48.57
1349.934;-48.1
1350.133;-47.67
1350.332;-47.32
1350.531;-46.96
1350.73;-46.61
1350.929;-46.25
1351.128;-46.06
1351.327;-45.9
1351.527;-45.82
1351.726;-45.86
1351.925;-45.91
1352.124;-46.0
1352.323;-46.17
1352.522;-46.41
1352.721;-46.67
1352.92;-47.0
1353.12;-47.48
1353.319;-47.9
1353.518;-48.55
1353.717;-49.08
1353.916;-49.69
1354.115;-50.44
1354.314;-51.32
1354.513;-52.25
1354.712;-53.37
1354.912;-54.53
1355.111;-55.65
1355.31;-56.65
1355.509;-57.31
1355.708;-57.86
1355.907;-58.03
1356.106;-57.7
1356.305;-57.01
1356.504;-56.26
1356.704;-55.37
1356.903;-54.72
1357.102;-54.38
1357.301;-53.89
1357.5;-53.45
1357.699;-53.08
1357.898;-52.73
1358.097;-52.43
1358.297;-52.32
1358.496;-52.36
1358.695;-52.34
1358.894;-52.42
1359.093;-52.55
1359.292;-52.66
1359.491;-53.12
1359.69;-53.6
1359.889;-54.09
1360.089;-54.52
1360.288;-54.98
1360.487;-55.42
1360.686;-56.15
1360.885;-57.13
1361.084;-58.18
1361.283;-59.55
1361.482;-60.51
1361.681;-61.63
1361.881;-62.69
1362.08;-63.68
1362.279;-64.51
1362.478;-64.7
1362.677;-64.16
1362.876;-63.14
1363.075;-62.11
1363.274;-61.02
1363.474;-60.23
1363.673;-59.52
1363.872;-58.94
1364.071;-58.53
1364.27;-58.19
1364.469;-58.05
1364.668;-58.2
1364.867;-58.11
1365.066;-57.85
1365.266;-57.85
1365.465;-57.72
1365.664;-57.77
1365.863;-57.88
1366.062;-57.98
1366.261;-58.14
1366.46;-58.45
1366.659;-58.9
1366.858;-59.52
1367.058;-60.07
1367.257;-60.73
1367.456;-61.55
1367.655;-62.36
1367.854;-63.39
1368.053;-64.42
1368.252;-65.32
1368.451;-66.51
1368.65;-67.48
1368.85;-68.6
1369.049;-69.2
1369.248;-69.54
1369.447;-69.31
1369.646;-69.12
1369.845;-68.96
1370.044;-68.3
1370.243;-67.63
1370.443;-66.9
1370.642;-66.25
1370.841;-66.0
1371.04;-65.74
1371.239;-65.49
1371.438;-65.03
1371.637;-64.72
1371.836;-64.46
1372.035;-64.43
1372.235;-64.45
1372.434;-64.49
1372.633;-64.5
1372.832;-64.52
1373.031;-64.58
1373.23;-64.75
1373.429;-64.98
1373.628;-65.22
1373.827;-65.4
1374.027;-65.64
1374.226;-65.8
1374.425;-66.11
1374.624;-66.26
1374.823;-66.63
1375.022;-66.86
1375.221;-67.03
1375.42;-67.13
1375.62;-67.26
1375.819;-67.32
1376.018;-67.51
1376.217;-67.67
1376.416;-67.84
1376.615;-67.96
1376.814;-68.08
1377.013;-68.36
1377.212;-68.73
1377.412;-68.85
1377.611;-69.09
1377.81;-69.29
1378.009;-69.62
1378.208;-69.86
1378.407;-70.34
1378.606;-70.87
1378.805;-71.54
1379.004;-71.99
1379.204;-72.74
1379.403;-72.95
1379.602;-73.55
1379.801;-74.0
1380.0;-74.91
1380.199;-75.85
1380.398;-75.88
1380.597;-76.88
1380.797;-77.11
1380.996;-77.09
1381.195;-75.81
1381.394;-75.47
1381.593;-74.68
1381.792;-74.0
1381.991;-73.41
1382.19;-72.95
1382.389;-72.8
1382.589;-73.35
1382.788;-72.95
1382.987;-72.75
1383.186;-72.18
1383.385;-72.06
1383.584;-71.42
1383.783;-71.43
1383.982;-71.48
1384.181;-71.65
1384.381;-71.62
1384.58;-71.84
1384.779;-71.97
1384.978;-72.31
1385.177;-72.95
1385.376;-72.9
1385.575;-73.12
1385.774;-73.61
1385.974;-74.01
1386.173;-74.21
1386.372;-74.82
1386.571;-75.13
1386.77;-76.03
1386.969;-76.48
1387.168;-76.98
1387.367;-77.77
1387.566;-78.01
1387.766;-77.59
1387.965;-77.57
1388.164;-77.96
1388.363;-77.48
1388.562;-76.96
1388.761;-76.74
1388.96;-76.18
1389.159;-75.94
1389.358;-75.85
1389.558;-76.0
1389.757;-75.24
1389.956;-74.85
1390.155;-74.69
1390.354;-74.82
1390.553;-74.83
1390.752;-74.7
1390.951;-74.76
1391.15;-74.52
1391.35;-74.31
1391.549;-74.86
1391.748;-74.86
1391.947;-75.05
1392.146;-75.33
1392.345;-75.63
1392.544;-75.84
1392.743;-77.03
1392.943;-77.05
1393.142;-76.88
1393.341;-77.29
1393.54;-77.54
1393.739;-77.65
1393.938;-78.72
1394.137;-78.9
1394.336;-79.6
1394.535;-78.96
1394.735;-80.36
1394.934;-79.3
1395.133;-80.66
1395.332;-79.05
1395.531;-79.36
1395.73;-80.08
1395.929;-80.08
1396.128;-79.46
1396.327;-79.02
1396.527;-79.5
1396.726;-80.16
1396.925;-79.92
1397.124;-78.21
1397.323;-78.19
1397.522;-78.47
1397.721;-77.92
1397.92;-78.42
1398.12;-78.37
1398.319;-78.78
1398.518;-78.48
1398.717;-77.48
1398.916;-77.23
1399.115;-77.12
1399.314;-76.87
1399.513;-79.0
1399.712;-77.84
1399.912;-77.48
1400.111;-78.97
1400.31;-77.63
1400.509;-78.1
1400.708;-78.82
1400.907;-78.27
1401.106;-78.33
1401.305;-79.75
1401.504;-78.85
1401.704;-78.48
1401.903;-78.82
1402.102;-78.73
1402.301;-78.3
1402.5;-79.0
1402.699;-81.09
1402.898;-79.12
1403.097;-83.42
1403.297;-80.85
1403.496;-79.06
1403.695;-80.17
1403.894;-80.01
1404.093;-80.67
1404.292;-80.49
1404.491;-80.41
1404.69;-79.44
1404.889;-82.07
1405.089;-83.1
1405.288;-80.94
1405.487;-80.76
1405.686;-81.55
1405.885;-80.17
1406.084;-80.85
1406.283;-81.66
1406.482;-80.09
1406.681;-81.61
1406.881;-84.46
1407.08;-81.0
1407.279;-79.52
1407.478;-80.5
1407.677;-80.59
1407.876;-80.1
1408.075;-80.14
1408.274;-79.52
1408.474;-81.19
1408.673;-81.56
1408.872;-80.5
1409.071;-80.77
1409.27;-81.24
1409.469;-81.3
1409.668;-88.55
1409.867;-81.56
1410.066;-81.5
1410.266;-80.42
1410.465;-79.38
1410.664;-79.83
1410.863;-82.02
1411.062;-80.34
1411.261;-80.55
1411.46;-79.66
1411.659;-80.42
1411.858;-80.77
1412.058;-79.19
1412.257;-82.33
1412.456;-83.69
1412.655;-80.77
1412.854;-80.1
1413.053;-81.1
1413.252;-80.34
1413.451;-80.72
1413.65;-80.23
1413.85;-79.88
1414.049;-80.39
1414.248;-81.25
1414.447;-81.2
1414.646;-80.78
1414.845;-81.25
1415.044;-80.69
1415.243;-81.51
1415.443;-80.43
1415.642;-80.19
1415.841;-79.3
1416.04;-80.27
1416.239;-81.46
1416.438;-81.31
1416.637;-79.81
1416.836;-81.73
1417.035;-79.84
1417.235;-80.03
1417.434;-80.47
1417.633;-79.67
1417.832;-81.11
1418.031;-79.99
1418.23;-81.2
1418.429;-80.07
1418.628;-80.73
1418.827;-81.46
1419.027;-80.64
1419.226;-80.11
1419.425;-79.81
1419.624;-80.51
1419.823;-80.69
1420.022;-80.03
1420.221;-80.03
1420.42;-79.49
1420.62;-81.11
1420.819;-78.75
1421.018;-80.56
1421.217;-80.51
1421.416;-79.95
1421.615;-79.27
1421.814;-80.44
1422.013;-79.21
1422.212;-79.34
1422.412;-78.97
1422.611;-80.97
1422.81;-78.91
1423.009;-80.28
1423.208;-80.08
1423.407;-81.92
1423.606;-79.21
1423.805;-80.97
1424.004;-81.12
1424.204;-79.24
1424.403;-78.68
1424.602;-78.91
1424.801;-78.36
1425.0;-80.16
