Wavelength (nm);Intensity (dBm)
1131.0;1131.0
1200.0;-62.02
1200.199;-61.95
1200.398;-61.85
1200.597;-61.78
1200.797;-61.76
1200.996;-61.77
1201.195;-61.72
1201.394;-61.59
1201.593;-61.54
1201.792;-61.56
1201.991;-61.51
1202.19;-61.47
1202.389;-61.38
1202.589;-61.4
1202.788;-61.37
1202.987;-61.32
1203.186;-61.28
1203.385;-61.23
1203.584;-61.24
1203.783;-61.27
1203.982;-61.2
1204.181;-61.14
1204.381;-61.21
1204.58;-61.21
1204.779;-61.18
1204.978;-61.13
1205.177;-61.19
1205.376;-61.22
1205.575;-61.23
1205.774;-61.24
1205.974;-61.22
1206.173;-61.3
1206.372;-61.31
1206.571;-61.28
1206.77;-61.29
1206.969;-61.33
1207.168;-61.33
1207.367;-61.24
1207.566;-61.23
1207.766;-61.2
1207.965;-61.16
1208.164;-61.08
1208.363;-61.0
1208.562;-60.93
1208.761;-60.88
1208.96;-60.77
1209.159;-60.65
1209.358;-60.58
1209.558;-60.49
1209.757;-60.42
1209.956;-60.29
1210.155;-60.2
1210.354;-60.13
1210.553;-60.07
1210.752;-60.01
1210.951;-59.91
1211.15;-59.87
1211.35;-59.86
1211.549;-59.81
1211.748;-59.77
1211.947;-59.77
1212.146;-59.78
1212.345;-59.78
1212.544;-59.79
1212.743;-59.81
1212.943;-59.86
1213.142;-59.89
1213.341;-59.91
1213.54;-59.93
1213.739;-60.0
1213.938;-60.03
1214.137;-60.01
1214.336;-60.03
1214.535;-60.04
1214.735;-60.07
1214.934;-60.0
1215.133;-59.95
1215.332;-59.94
1215.531;-59.89
1215.73;-59.82
1215.929;-59.7
1216.128;-59.61
1216.327;-59.51
1216.527;-59.4
1216.726;-59.26
1216.925;-59.12
1217.124;-58.99
1217.323;-58.88
1217.522;-58.74
1217.721;-58.63
1217.92;-58.52
1218.12;-58.44
1218.319;-58.34
1218.518;-58.27
1218.717;-58.25
1218.916;-58.22
1219.115;-58.17
1219.314;-58.17
1219.513;-58.2
1219.712;-58.24
1219.912;-58.25
1220.111;-58.28
1220.31;-58.33
1220.509;-58.38
1220.708;-58.44
1220.907;-58.45
1221.106;-58.5
1221.305;-58.58
1221.504;-58.57
1221.704;-58.58
1221.903;-58.59
1222.102;-58.57
1222.301;-58.53
1222.5;-58.46
1222.699;-58.39
1222.898;-58.3
1223.097;-58.18
1223.297;-58.02
1223.496;-57.85
1223.695;-57.72
1223.894;-57.55
1224.093;-57.34
1224.292;-57.16
1224.491;-56.98
1224.69;-56.82
1224.889;-56.63
1225.089;-56.47
1225.288;-56.34
1225.487;-56.22
1225.686;-56.13
1225.885;-56.04
1226.084;-55.99
1226.283;-55.96
1226.482;-55.91
1226.681;-55.93
1226.881;-55.94
1227.08;-55.95
1227.279;-55.99
1227.478;-56.03
1227.677;-56.09
1227.876;-56.14
1228.075;-56.18
1228.274;-56.21
1228.474;-56.25
1228.673;-56.3
1228.872;-56.3
1229.071;-56.31
1229.27;-56.33
1229.469;-56.3
1229.668;-56.27
1229.867;-56.21
1230.066;-56.17
1230.266;-56.1
1230.465;-56.0
1230.664;-55.93
1230.863;-55.86
1231.062;-55.76
1231.261;-55.66
1231.46;-55.6
1231.659;-55.54
1231.858;-55.47
1232.058;-55.43
1232.257;-55.39
1232.456;-55.37
1232.655;-55.35
1232.854;-55.32
1233.053;-55.34
1233.252;-55.35
1233.451;-55.34
1233.65;-55.37
1233.85;-55.36
1234.049;-55.38
1234.248;-55.35
1234.447;-55.31
1234.646;-55.29
1234.845;-55.24
1235.044;-55.15
1235.243;-55.05
1235.443;-54.93
1235.642;-54.81
1235.841;-54.64
1236.04;-54.5
1236.239;-54.32
1236.438;-54.13
1236.637;-53.96
1236.836;-53.77
1237.035;-53.62
1237.235;-53.44
1237.434;-53.28
1237.633;-53.15
1237.832;-53.03
1238.031;-52.92
1238.23;-52.82
1238.429;-52.74
1238.628;-52.69
1238.827;-52.63
1239.027;-52.6
1239.226;-52.56
1239.425;-52.53
1239.624;-52.51
1239.823;-52.47
1240.022;-52.46
1240.221;-52.39
1240.42;-52.33
1240.62;-52.27
1240.819;-52.17
1241.018;-52.07
1241.217;-51.93
1241.416;-51.8
1241.615;-51.66
1241.814;-51.49
1242.013;-51.34
1242.212;-51.17
1242.412;-51.02
1242.611;-50.85
1242.81;-50.7
1243.009;-50.57
1243.208;-50.43
1243.407;-50.32
1243.606;-50.22
1243.805;-50.15
1244.004;-50.09
1244.204;-50.02
1244.403;-50.0
1244.602;-49.97
1244.801;-49.93
1245.0;-49.93
1245.199;-49.9
1245.398;-49.86
1245.597;-49.8
1245.797;-49.72
1245.996;-49.62
1246.195;-49.48
1246.394;-49.31
1246.593;-49.12
1246.792;-48.9
1246.991;-48.67
1247.19;-48.42
1247.389;-48.17
1247.589;-47.91
1247.788;-47.66
1247.987;-47.44
1248.186;-47.22
1248.385;-47.04
1248.584;-46.87
1248.783;-46.75
1248.982;-46.68
1249.181;-46.61
1249.381;-46.61
1249.58;-46.64
1249.779;-46.71
1249.978;-46.83
1250.177;-46.98
1250.376;-47.16
1250.575;-47.35
1250.774;-47.54
1250.974;-47.73
1251.173;-47.83
1251.372;-47.86
1251.571;-47.75
1251.77;-47.49
1251.969;-47.09
1252.168;-46.55
1252.367;-45.94
1252.566;-45.14
1252.766;-44.54
1252.965;-43.83
1253.164;-43.12
1253.363;-42.44
1253.562;-41.81
1253.761;-41.23
1253.96;-40.68
1254.159;-40.18
1254.358;-39.74
1254.558;-39.35
1254.757;-39.02
1254.956;-38.73
1255.155;-38.51
1255.354;-38.33
1255.553;-38.22
1255.752;-38.18
1255.951;-38.16
1256.15;-38.24
1256.35;-38.37
1256.549;-38.58
1256.748;-38.86
1256.947;-39.19
1257.146;-39.62
1257.345;-40.12
1257.544;-40.71
1257.743;-41.38
1257.943;-42.09
1258.142;-42.84
1258.341;-43.5
1258.54;-43.99
1258.739;-44.15
1258.938;-43.86
1259.137;-43.2
1259.336;-42.25
1259.535;-41.18
1259.735;-40.09
1259.934;-39.03
1260.133;-38.06
1260.332;-37.14
1260.531;-36.33
1260.73;-35.47
1260.929;-34.93
1261.128;-34.36
1261.327;-33.85
1261.527;-33.44
1261.726;-33.06
1261.925;-32.76
1262.124;-32.53
1262.323;-32.35
1262.522;-32.26
1262.721;-32.21
1262.92;-32.22
1263.12;-32.3
1263.319;-32.44
1263.518;-32.67
1263.717;-32.92
1263.916;-33.27
1264.115;-33.68
1264.314;-34.14
1264.513;-34.69
1264.712;-35.25
1264.912;-35.84
1265.111;-36.38
1265.31;-36.79
1265.509;-37.02
1265.708;-36.94
1265.907;-36.59
1266.106;-35.96
1266.305;-35.19
1266.504;-34.35
1266.704;-33.48
1266.903;-32.66
1267.102;-31.89
1267.301;-31.19
1267.5;-30.59
1267.699;-30.02
1267.898;-29.55
1268.097;-29.15
1268.297;-28.81
1268.496;-28.56
1268.695;-28.35
1268.894;-28.23
1269.093;-28.16
1269.292;-28.17
1269.491;-28.26
1269.69;-28.4
1269.889;-28.64
1270.089;-28.94
1270.288;-29.33
1270.487;-29.84
1270.686;-30.43
1270.885;-31.14
1271.084;-31.94
1271.283;-32.84
1271.482;-33.8
1271.681;-34.68
1271.881;-35.33
1272.08;-35.49
1272.279;-35.06
1272.478;-34.16
1272.677;-33.02
1272.876;-31.83
1273.075;-30.65
1273.274;-29.59
1273.474;-28.63
1273.673;-27.76
1273.872;-27.02
1274.071;-26.34
1274.27;-25.68
1274.469;-25.26
1274.668;-24.86
1274.867;-24.5
1275.066;-24.21
1275.266;-24.0
1275.465;-23.84
1275.664;-23.77
1275.863;-23.74
1276.062;-23.8
1276.261;-23.92
1276.46;-24.11
1276.659;-24.39
1276.858;-24.74
1277.058;-25.19
1277.257;-25.74
1277.456;-26.4
1277.655;-27.2
1277.854;-28.12
1278.053;-29.45
1278.252;-30.5
1278.451;-31.91
1278.65;-33.37
1278.85;-34.53
1279.049;-34.82
1279.248;-33.97
1279.447;-32.49
1279.646;-30.85
1279.845;-29.29
1280.044;-27.93
1280.243;-26.71
1280.443;-25.5
1280.642;-24.75
1280.841;-23.97
1281.04;-23.28
1281.239;-22.69
1281.438;-22.19
1281.637;-21.75
1281.836;-21.4
1282.035;-21.11
1282.235;-20.88
1282.434;-20.72
1282.633;-20.62
1282.832;-20.58
1283.031;-20.58
1283.23;-20.64
1283.429;-20.76
1283.628;-20.92
1283.827;-21.14
1284.027;-21.39
1284.226;-21.69
1284.425;-22.02
1284.624;-22.35
1284.823;-22.7
1285.022;-23.01
1285.221;-23.28
1285.42;-23.48
1285.62;-23.56
1285.819;-23.54
1286.018;-23.38
1286.217;-23.11
1286.416;-22.75
1286.615;-22.32
1286.814;-21.87
1287.013;-21.39
1287.212;-20.92
1287.412;-20.47
1287.611;-20.06
1287.81;-19.7
1288.009;-19.35
1288.208;-19.07
1288.407;-18.83
1288.606;-18.64
1288.805;-18.5
1289.004;-18.39
1289.204;-18.34
1289.403;-18.32
1289.602;-18.34
1289.801;-18.41
1290.0;-18.5
1290.199;-18.64
1290.398;-18.79
1290.597;-18.98
1290.797;-19.18
1290.996;-19.36
1291.195;-19.55
1291.394;-19.7
1291.593;-19.82
1291.792;-19.91
1291.991;-19.93
1292.19;-19.91
1292.389;-19.8
1292.589;-19.64
1292.788;-19.44
1292.987;-19.21
1293.186;-18.97
1293.385;-18.7
1293.584;-18.43
1293.783;-18.19
1293.982;-17.96
1294.181;-17.78
1294.381;-17.61
1294.58;-17.48
1294.779;-17.39
1294.978;-17.35
1295.177;-17.37
1295.376;-17.42
1295.575;-17.53
1295.774;-17.68
1295.974;-17.88
1296.173;-18.16
1296.372;-18.49
1296.571;-18.89
1296.77;-19.34
1296.969;-19.87
1297.168;-20.47
1297.367;-21.12
1297.566;-21.83
1297.766;-22.56
1297.965;-23.28
1298.164;-23.91
1298.363;-24.37
1298.562;-24.56
1298.761;-24.43
1298.96;-24.03
1299.159;-23.41
1299.358;-22.69
1299.558;-21.91
1299.757;-21.16
1299.956;-20.47
1300.155;-19.82
1300.354;-19.25
1300.553;-18.73
1300.752;-18.29
1300.951;-17.92
1301.15;-17.61
1301.35;-17.38
1301.549;-17.2
1301.748;-17.08
1301.947;-17.03
1302.146;-17.03
1302.345;-17.1
1302.544;-17.23
1302.743;-17.42
1302.943;-17.67
1303.142;-18.0
1303.341;-18.41
1303.54;-18.88
1303.739;-19.44
1303.938;-20.08
1304.137;-20.82
1304.336;-21.65
1304.535;-22.57
1304.735;-23.57
1304.934;-24.58
1305.133;-25.54
1305.332;-26.28
1305.531;-26.59
1305.73;-26.4
1305.929;-25.75
1306.128;-24.86
1306.327;-23.87
1306.527;-22.89
1306.726;-22.0
1306.925;-21.16
1307.124;-20.44
1307.323;-19.79
1307.522;-19.24
1307.721;-18.77
1307.92;-18.35
1308.12;-18.03
1308.319;-17.74
1308.518;-17.53
1308.717;-17.37
1308.916;-17.25
1309.115;-17.2
1309.314;-17.17
1309.513;-17.21
1309.712;-17.27
1309.912;-17.37
1310.111;-17.53
1310.31;-17.7
1310.509;-17.92
1310.708;-18.16
1310.907;-18.43
1311.106;-18.76
1311.305;-19.08
1311.504;-19.45
1311.704;-19.81
1311.903;-20.19
1312.102;-20.59
1312.301;-21.0
1312.5;-21.43
1312.699;-21.84
1312.898;-22.26
1313.097;-22.67
1313.297;-23.09
1313.496;-23.53
1313.695;-23.94
1313.894;-24.37
1314.093;-24.81
1314.292;-25.25
1314.491;-25.73
1314.69;-26.2
1314.889;-26.69
1315.089;-27.17
1315.288;-27.63
1315.487;-28.04
1315.686;-28.44
1315.885;-28.59
1316.084;-28.64
1316.283;-28.53
1316.482;-28.25
1316.681;-27.83
1316.881;-27.28
1317.08;-26.7
1317.279;-25.95
1317.478;-25.45
1317.677;-24.86
1317.876;-24.3
1318.075;-23.8
1318.274;-23.33
1318.474;-22.94
1318.673;-22.58
1318.872;-22.28
1319.071;-22.05
1319.27;-21.85
1319.469;-21.72
1319.668;-21.63
1319.867;-21.61
1320.066;-21.63
1320.266;-21.71
1320.465;-21.86
1320.664;-22.06
1320.863;-22.32
1321.062;-22.64
1321.261;-23.03
1321.46;-23.51
1321.659;-24.04
1321.858;-24.68
1322.058;-25.39
1322.257;-26.21
1322.456;-27.13
1322.655;-28.14
1322.854;-29.5
1323.053;-30.41
1323.252;-31.49
1323.451;-32.31
1323.65;-32.65
1323.85;-32.41
1324.049;-31.7
1324.248;-30.76
1324.447;-29.75
1324.646;-28.78
1324.845;-27.92
1325.044;-27.14
1325.243;-26.49
1325.443;-25.81
1325.642;-25.45
1325.841;-25.05
1326.04;-24.75
1326.239;-24.51
1326.438;-24.34
1326.637;-24.26
1326.836;-24.21
1327.035;-24.25
1327.235;-24.34
1327.434;-24.49
1327.633;-24.71
1327.832;-24.97
1328.031;-25.32
1328.23;-25.69
1328.429;-26.15
1328.628;-26.67
1328.827;-27.24
1329.027;-27.89
1329.226;-28.72
1329.425;-29.34
1329.624;-30.09
1329.823;-30.86
1330.022;-31.61
1330.221;-32.26
1330.42;-32.76
1330.62;-33.03
1330.819;-33.06
1331.018;-32.86
1331.217;-32.49
1331.416;-32.03
1331.615;-31.53
1331.814;-31.04
1332.013;-30.57
1332.212;-30.16
1332.412;-29.81
1332.611;-29.52
1332.81;-29.3
1333.009;-29.12
1333.208;-29.02
1333.407;-28.97
1333.606;-28.98
1333.805;-29.06
1334.004;-29.18
1334.204;-29.37
1334.403;-29.6
1334.602;-29.9
1334.801;-30.25
1335.0;-30.66
1335.199;-31.14
1335.398;-31.65
1335.597;-32.23
1335.797;-32.85
1335.996;-33.52
1336.195;-34.25
1336.394;-34.97
1336.593;-35.7
1336.792;-36.37
1336.991;-36.97
1337.19;-37.44
1337.389;-37.74
1337.589;-37.87
1337.788;-37.8
1337.987;-37.61
1338.186;-37.31
1338.385;-36.97
1338.584;-36.62
1338.783;-36.28
1338.982;-35.99
1339.181;-35.72
1339.381;-35.51
1339.58;-35.34
1339.779;-35.22
1339.978;-35.18
1340.177;-35.16
1340.376;-35.2
1340.575;-35.29
1340.774;-35.41
1340.974;-35.58
1341.173;-35.77
1341.372;-36.02
1341.571;-36.27
1341.77;-36.56
1341.969;-36.87
1342.168;-37.18
1342.367;-37.52
1342.566;-37.83
1342.766;-38.14
1342.965;-38.49
1343.164;-38.7
1343.363;-38.91
1343.562;-39.09
1343.761;-39.25
1343.96;-39.36
1344.159;-39.45
1344.358;-39.51
1344.558;-39.56
1344.757;-39.6
1344.956;-39.63
1345.155;-39.69
1345.354;-39.74
1345.553;-39.84
1345.752;-39.96
1345.951;-40.12
1346.15;-40.33
1346.35;-40.57
1346.549;-40.88
1346.748;-41.21
1346.947;-41.6
1347.146;-42.06
1347.345;-42.55
1347.544;-43.18
1347.743;-43.87
1347.943;-44.65
1348.142;-45.51
1348.341;-46.48
1348.54;-47.54
1348.739;-49.03
1348.938;-50.16
1349.137;-51.75
1349.336;-53.56
1349.535;-55.56
1349.735;-57.41
1349.934;-58.67
1350.133;-58.15
1350.332;-56.86
1350.531;-54.96
1350.73;-53.72
1350.929;-52.42
1351.128;-51.36
1351.327;-50.5
1351.527;-49.84
1351.726;-49.36
1351.925;-48.93
1352.124;-48.61
1352.323;-48.39
1352.522;-48.31
1352.721;-48.23
1352.92;-48.25
1353.12;-48.45
1353.319;-48.56
1353.518;-48.83
1353.717;-49.17
1353.916;-49.51
1354.115;-49.98
1354.314;-50.59
1354.513;-51.27
1354.712;-52.13
1354.912;-53.07
1355.111;-54.04
1355.31;-55.06
1355.509;-56.01
1355.708;-57.13
1355.907;-58.19
1356.106;-59.12
1356.305;-59.27
1356.504;-59.01
1356.704;-58.24
1356.903;-57.46
1357.102;-56.88
1357.301;-55.9
1357.5;-55.25
1357.699;-54.58
1357.898;-53.92
1358.097;-53.35
1358.297;-52.96
1358.496;-52.74
1358.695;-52.46
1358.894;-52.28
1359.093;-52.17
1359.292;-52.02
1359.491;-52.27
1359.69;-52.51
1359.889;-52.72
1360.089;-52.86
1360.288;-53.03
1360.487;-53.23
1360.686;-53.64
1360.885;-54.32
1361.084;-55.05
1361.283;-55.77
1361.482;-56.6
1361.681;-57.42
1361.881;-58.37
1362.08;-59.77
1362.279;-60.93
1362.478;-62.11
1362.677;-63.31
1362.876;-63.98
1363.075;-64.23
1363.274;-63.8
1363.474;-63.22
1363.673;-62.42
1363.872;-61.57
1364.071;-60.84
1364.27;-60.11
1364.469;-59.63
1364.668;-59.47
1364.867;-59.01
1365.066;-58.41
1365.266;-58.11
1365.465;-57.75
1365.664;-57.55
1365.863;-57.37
1366.062;-57.24
1366.261;-57.17
1366.46;-57.24
1366.659;-57.45
1366.858;-57.79
1367.058;-58.14
1367.257;-58.51
1367.456;-59.08
1367.655;-59.6
1367.854;-60.34
1368.053;-61.02
1368.252;-61.6
1368.451;-62.51
1368.65;-63.22
1368.85;-64.1
1369.049;-64.83
1369.248;-65.41
1369.447;-65.76
1369.646;-66.12
1369.845;-66.45
1370.044;-66.34
1370.243;-65.97
1370.443;-65.39
1370.642;-64.81
1370.841;-64.58
1371.04;-64.14
1371.239;-63.75
1371.438;-63.24
1371.637;-62.79
1371.836;-62.41
1372.035;-62.27
1372.235;-62.22
1372.434;-62.13
1372.633;-62.06
1372.832;-62.0
1373.031;-62.03
1373.23;-62.2
1373.429;-62.42
1373.628;-62.71
1373.827;-63.03
1374.027;-63.45
1374.226;-63.87
1374.425;-64.39
1374.624;-65.01
1374.823;-65.74
1375.022;-66.56
1375.221;-67.39
1375.42;-68.3
1375.62;-69.27
1375.819;-70.15
1376.018;-71.53
1376.217;-72.57
1376.416;-73.72
1376.615;-74.55
1376.814;-75.17
1377.013;-75.29
1377.212;-75.02
1377.412;-74.36
1377.611;-74.01
1377.81;-72.95
1378.009;-72.29
1378.208;-71.75
1378.407;-71.19
1378.606;-70.8
1378.805;-70.75
1379.004;-70.59
1379.204;-70.15
1379.403;-70.03
1379.602;-69.7
1379.801;-69.6
1380.0;-69.59
1380.199;-69.61
1380.398;-69.93
1380.597;-70.47
1380.797;-70.95
1380.996;-70.94
1381.195;-71.06
1381.394;-71.01
1381.593;-70.51
1381.792;-70.67
1381.991;-70.58
1382.19;-70.58
1382.389;-70.78
1382.589;-71.28
1382.788;-71.74
1382.987;-71.86
1383.186;-71.49
1383.385;-70.96
1383.584;-70.86
1383.783;-70.62
1383.982;-70.62
1384.181;-70.7
1384.381;-70.28
1384.58;-70.25
1384.779;-70.3
1384.978;-70.64
1385.177;-70.87
1385.376;-70.97
1385.575;-70.97
1385.774;-70.96
1385.974;-71.31
1386.173;-71.5
1386.372;-71.79
1386.571;-71.9
1386.77;-72.25
1386.969;-72.79
1387.168;-73.08
1387.367;-73.68
1387.566;-74.19
1387.766;-75.0
1387.965;-75.32
1388.164;-76.48
1388.363;-77.55
1388.562;-78.13
1388.761;-77.84
1388.96;-78.46
1389.159;-78.74
1389.358;-78.25
1389.558;-79.77
1389.757;-78.55
1389.956;-79.22
1390.155;-79.84
1390.354;-78.95
1390.553;-80.07
1390.752;-79.49
1390.951;-78.95
1391.15;-77.38
1391.35;-77.89
1391.549;-77.99
1391.748;-78.34
1391.947;-77.9
1392.146;-78.07
1392.345;-78.37
1392.544;-78.19
1392.743;-77.9
1392.943;-78.69
1393.142;-77.69
1393.341;-77.69
1393.54;-78.39
1393.739;-78.07
1393.938;-78.32
1394.137;-78.84
1394.336;-79.2
1394.535;-79.78
1394.735;-81.43
1394.934;-80.48
1395.133;-80.36
1395.332;-80.16
1395.531;-80.4
1395.73;-79.05
1395.929;-78.69
1396.128;-78.75
1396.327;-78.47
1396.527;-78.5
1396.726;-79.5
1396.925;-78.93
1397.124;-79.3
1397.323;-78.14
1397.522;-78.21
1397.721;-77.05
1397.92;-78.32
1398.12;-77.52
1398.319;-77.97
1398.518;-77.5
1398.717;-77.04
1398.916;-77.46
1399.115;-77.46
1399.314;-77.7
1399.513;-77.63
1399.712;-77.57
1399.912;-78.2
1400.111;-77.91
1400.31;-78.08
1400.509;-78.68
1400.708;-78.33
1400.907;-78.0
1401.106;-78.27
1401.305;-78.68
1401.504;-78.33
1401.704;-79.0
1401.903;-78.85
1402.102;-78.59
1402.301;-78.33
1402.5;-79.06
1402.699;-79.72
1402.898;-79.72
1403.097;-79.34
1403.297;-80.41
1403.496;-80.21
1403.695;-79.86
1403.894;-78.82
1404.093;-79.31
1404.292;-79.18
1404.491;-80.17
1404.69;-80.54
1404.889;-80.85
1405.089;-80.21
1405.288;-80.89
1405.487;-80.54
1405.686;-81.23
1405.885;-83.34
1406.084;-82.8
1406.283;-80.25
1406.482;-79.93
1406.681;-81.24
1406.881;-81.05
1407.08;-80.95
1407.279;-80.59
1407.478;-81.45
1407.677;-79.38
1407.876;-80.18
1408.075;-80.26
1408.274;-79.91
1408.474;-80.95
1408.673;-79.52
1408.872;-79.52
1409.071;-80.86
1409.27;-79.94
1409.469;-80.42
1409.668;-80.3
1409.867;-79.83
1410.066;-79.38
1410.266;-80.3
1410.465;-79.52
1410.664;-80.68
1410.863;-79.73
1411.062;-80.1
1411.261;-79.76
1411.46;-80.14
1411.659;-80.77
1411.858;-80.02
1412.058;-80.02
1412.257;-82.2
1412.456;-79.94
1412.655;-79.29
1412.854;-81.05
1413.053;-80.42
1413.252;-79.66
1413.451;-79.87
1413.65;-80.39
1413.85;-79.39
1414.049;-81.85
1414.248;-79.33
1414.447;-81.31
1414.646;-81.15
1414.845;-79.67
1415.044;-79.49
1415.243;-79.81
1415.443;-81.06
1415.642;-80.87
1415.841;-79.77
1416.04;-80.69
1416.239;-80.27
1416.438;-79.02
1416.637;-80.64
1416.836;-81.15
1417.035;-80.91
1417.235;-81.46
1417.434;-80.51
1417.633;-80.03
1417.832;-79.81
1418.031;-82.15
1418.23;-80.91
1418.429;-81.79
1418.628;-79.92
1418.827;-78.72
1419.027;-80.43
1419.226;-80.96
1419.425;-80.07
1419.624;-80.11
1419.823;-82.47
1420.022;-81.46
1420.221;-79.11
1420.42;-78.4
1420.62;-78.75
1420.819;-78.96
1421.018;-79.14
1421.217;-79.74
1421.416;-80.11
1421.615;-80.74
1421.814;-81.16
1422.013;-79.03
1422.212;-80.32
1422.412;-80.16
1422.611;-79.37
1422.81;-79.24
1423.009;-80.2
1423.208;-78.73
1423.407;-79.0
1423.606;-79.0
1423.805;-79.96
1424.004;-78.73
1424.204;-79.0
1424.403;-79.68
1424.602;-81.69
1424.801;-79.54
1425.0;-78.97
