Wavelength (nm);Intensity (dBm)
1131.0;1131.0
1200.0;-62.31
1200.199;-62.28
1200.398;-62.2
1200.597;-62.15
1200.797;-62.1
1200.996;-62.15
1201.195;-62.07
1201.394;-61.94
1201.593;-61.88
1201.792;-61.87
1201.991;-61.83
1202.19;-61.69
1202.389;-61.58
1202.589;-61.57
1202.788;-61.51
1202.987;-61.44
1203.186;-61.34
1203.385;-61.24
1203.584;-61.26
1203.783;-61.23
1203.982;-61.14
1204.181;-61.03
1204.381;-61.05
1204.58;-61.05
1204.779;-61.0
1204.978;-60.95
1205.177;-60.96
1205.376;-61.0
1205.575;-61.02
1205.774;-61.01
1205.974;-61.01
1206.173;-61.1
1206.372;-61.12
1206.571;-61.08
1206.77;-61.1
1206.969;-61.13
1207.168;-61.12
1207.367;-61.05
1207.566;-61.06
1207.766;-61.01
1207.965;-61.0
1208.164;-60.91
1208.363;-60.81
1208.562;-60.76
1208.761;-60.71
1208.96;-60.63
1209.159;-60.53
1209.358;-60.44
1209.558;-60.42
1209.757;-60.36
1209.956;-60.24
1210.155;-60.2
1210.354;-60.14
1210.553;-60.14
1210.752;-60.07
1210.951;-59.98
1211.15;-59.98
1211.35;-59.97
1211.549;-59.94
1211.748;-59.9
1211.947;-59.9
1212.146;-59.93
1212.345;-59.92
1212.544;-59.92
1212.743;-59.93
1212.943;-59.97
1213.142;-59.98
1213.341;-59.94
1213.54;-59.95
1213.739;-59.93
1213.938;-59.9
1214.137;-59.85
1214.336;-59.79
1214.535;-59.77
1214.735;-59.7
1214.934;-59.58
1215.133;-59.5
1215.332;-59.41
1215.531;-59.35
1215.73;-59.23
1215.929;-59.12
1216.128;-59.03
1216.327;-58.95
1216.527;-58.89
1216.726;-58.78
1216.925;-58.71
1217.124;-58.66
1217.323;-58.6
1217.522;-58.56
1217.721;-58.51
1217.92;-58.49
1218.12;-58.48
1218.319;-58.47
1218.518;-58.49
1218.717;-58.52
1218.916;-58.56
1219.115;-58.58
1219.314;-58.61
1219.513;-58.69
1219.712;-58.73
1219.912;-58.76
1220.111;-58.79
1220.31;-58.81
1220.509;-58.83
1220.708;-58.78
1220.907;-58.73
1221.106;-58.65
1221.305;-58.56
1221.504;-58.45
1221.704;-58.32
1221.903;-58.19
1222.102;-58.04
1222.301;-57.88
1222.5;-57.72
1222.699;-57.56
1222.898;-57.43
1223.097;-57.29
1223.297;-57.14
1223.496;-57.02
1223.695;-56.9
1223.894;-56.81
1224.093;-56.7
1224.292;-56.63
1224.491;-56.59
1224.69;-56.55
1224.889;-56.51
1225.089;-56.5
1225.288;-56.51
1225.487;-56.55
1225.686;-56.57
1225.885;-56.62
1226.084;-56.69
1226.283;-56.77
1226.482;-56.82
1226.681;-56.87
1226.881;-56.93
1227.08;-56.95
1227.279;-56.94
1227.478;-56.94
1227.677;-56.88
1227.876;-56.81
1228.075;-56.69
1228.274;-56.55
1228.474;-56.4
1228.673;-56.23
1228.872;-56.03
1229.071;-55.85
1229.27;-55.63
1229.469;-55.47
1229.668;-55.29
1229.867;-55.13
1230.066;-54.98
1230.266;-54.85
1230.465;-54.73
1230.664;-54.64
1230.863;-54.6
1231.062;-54.55
1231.261;-54.53
1231.46;-54.55
1231.659;-54.58
1231.858;-54.64
1232.058;-54.7
1232.257;-54.8
1232.456;-54.9
1232.655;-55.0
1232.854;-55.12
1233.053;-55.23
1233.252;-55.31
1233.451;-55.38
1233.65;-55.42
1233.85;-55.43
1234.049;-55.39
1234.248;-55.33
1234.447;-55.19
1234.646;-55.05
1234.845;-54.89
1235.044;-54.67
1235.243;-54.46
1235.443;-54.24
1235.642;-54.01
1235.841;-53.8
1236.04;-53.58
1236.239;-53.39
1236.438;-53.2
1236.637;-53.04
1236.836;-52.9
1237.035;-52.78
1237.235;-52.68
1237.434;-52.59
1237.633;-52.54
1237.832;-52.52
1238.031;-52.49
1238.23;-52.5
1238.429;-52.5
1238.628;-52.53
1238.827;-52.58
1239.027;-52.61
1239.226;-52.65
1239.425;-52.67
1239.624;-52.69
1239.823;-52.69
1240.022;-52.67
1240.221;-52.64
1240.42;-52.54
1240.62;-52.46
1240.819;-52.35
1241.018;-52.2
1241.217;-52.05
1241.416;-51.89
1241.615;-51.72
1241.814;-51.57
1242.013;-51.41
1242.212;-51.29
1242.412;-51.17
1242.611;-51.05
1242.81;-50.98
1243.009;-50.9
1243.208;-50.87
1243.407;-50.82
1243.606;-50.8
1243.805;-50.79
1244.004;-50.76
1244.204;-50.75
1244.403;-50.7
1244.602;-50.63
1244.801;-50.54
1245.0;-50.41
1245.199;-50.26
1245.398;-50.03
1245.597;-49.77
1245.797;-49.49
1245.996;-49.16
1246.195;-48.83
1246.394;-48.46
1246.593;-48.1
1246.792;-47.74
1246.991;-47.36
1247.19;-47.03
1247.389;-46.7
1247.589;-46.38
1247.788;-46.09
1247.987;-45.79
1248.186;-45.59
1248.385;-45.38
1248.584;-45.2
1248.783;-45.04
1248.982;-44.92
1249.181;-44.8
1249.381;-44.72
1249.58;-44.65
1249.779;-44.57
1249.978;-44.51
1250.177;-44.46
1250.376;-44.39
1250.575;-44.3
1250.774;-44.19
1250.974;-44.07
1251.173;-43.89
1251.372;-43.68
1251.571;-43.47
1251.77;-43.2
1251.969;-42.91
1252.168;-42.61
1252.367;-42.3
1252.566;-42.01
1252.766;-41.69
1252.965;-41.42
1253.164;-41.14
1253.363;-40.89
1253.562;-40.7
1253.761;-40.52
1253.96;-40.41
1254.159;-40.31
1254.358;-40.28
1254.558;-40.32
1254.757;-40.4
1254.956;-40.56
1255.155;-40.79
1255.354;-41.1
1255.553;-41.5
1255.752;-41.97
1255.951;-42.55
1256.15;-43.19
1256.35;-43.92
1256.549;-44.69
1256.748;-45.38
1256.947;-45.89
1257.146;-46.03
1257.345;-45.72
1257.544;-45.01
1257.743;-43.99
1257.943;-42.87
1258.142;-41.72
1258.341;-40.62
1258.54;-39.6
1258.739;-38.64
1258.938;-37.79
1259.137;-37.0
1259.336;-36.31
1259.535;-35.57
1259.735;-35.12
1259.934;-34.63
1260.133;-34.21
1260.332;-33.86
1260.531;-33.57
1260.73;-33.35
1260.929;-33.18
1261.128;-33.08
1261.327;-33.07
1261.527;-33.12
1261.726;-33.25
1261.925;-33.44
1262.124;-33.73
1262.323;-34.11
1262.522;-34.59
1262.721;-35.19
1262.92;-35.9
1263.12;-36.75
1263.319;-37.77
1263.518;-39.22
1263.717;-40.32
1263.916;-41.67
1264.115;-42.75
1264.314;-42.99
1264.513;-42.17
1264.712;-40.66
1264.912;-38.96
1265.111;-37.36
1265.31;-35.69
1265.509;-34.64
1265.708;-33.54
1265.907;-32.56
1266.106;-31.72
1266.305;-30.96
1266.504;-30.33
1266.704;-29.77
1266.903;-29.29
1267.102;-28.91
1267.301;-28.57
1267.5;-28.33
1267.699;-28.14
1267.898;-28.01
1268.097;-27.98
1268.297;-27.96
1268.496;-28.04
1268.695;-28.15
1268.894;-28.32
1269.093;-28.55
1269.292;-28.8
1269.491;-29.12
1269.69;-29.44
1269.889;-29.77
1270.089;-30.1
1270.288;-30.37
1270.487;-30.58
1270.686;-30.66
1270.885;-30.6
1271.084;-30.4
1271.283;-30.05
1271.482;-29.6
1271.681;-29.06
1271.881;-28.49
1272.08;-27.93
1272.279;-27.37
1272.478;-26.86
1272.677;-26.36
1272.876;-25.88
1273.075;-25.56
1273.274;-25.24
1273.474;-24.98
1273.673;-24.77
1273.872;-24.64
1274.071;-24.54
1274.27;-24.51
1274.469;-24.55
1274.668;-24.65
1274.867;-24.83
1275.066;-25.06
1275.266;-25.38
1275.465;-25.78
1275.664;-26.28
1275.863;-26.91
1276.062;-27.64
1276.261;-28.72
1276.46;-29.61
1276.659;-30.86
1276.858;-32.3
1277.058;-33.92
1277.257;-35.42
1277.456;-36.16
1277.655;-35.61
1277.854;-34.07
1278.053;-32.26
1278.252;-30.56
1278.451;-29.05
1278.65;-27.76
1278.85;-26.61
1279.049;-25.5
1279.248;-24.8
1279.447;-24.08
1279.646;-23.46
1279.845;-22.91
1280.044;-22.46
1280.243;-22.07
1280.443;-21.77
1280.642;-21.53
1280.841;-21.34
1281.04;-21.23
1281.239;-21.15
1281.438;-21.16
1281.637;-21.21
1281.836;-21.32
1282.035;-21.49
1282.235;-21.71
1282.434;-21.99
1282.633;-22.32
1282.832;-22.68
1283.031;-23.09
1283.23;-23.49
1283.429;-23.89
1283.628;-24.24
1283.827;-24.5
1284.027;-24.66
1284.226;-24.64
1284.425;-24.47
1284.624;-24.13
1284.823;-23.69
1285.022;-23.19
1285.221;-22.62
1285.42;-22.07
1285.62;-21.52
1285.819;-21.0
1286.018;-20.54
1286.217;-20.11
1286.416;-19.75
1286.615;-19.43
1286.814;-19.17
1287.013;-18.97
1287.212;-18.82
1287.412;-18.74
1287.611;-18.7
1287.81;-18.73
1288.009;-18.82
1288.208;-18.96
1288.407;-19.19
1288.606;-19.45
1288.805;-19.79
1289.004;-20.2
1289.204;-20.66
1289.403;-21.2
1289.602;-21.75
1289.801;-22.36
1290.0;-22.95
1290.199;-23.49
1290.398;-23.93
1290.597;-24.18
1290.797;-24.2
1290.996;-23.94
1291.195;-23.49
1291.394;-22.92
1291.593;-22.23
1291.792;-21.55
1291.991;-20.88
1292.19;-20.26
1292.389;-19.7
1292.589;-19.18
1292.788;-18.75
1292.987;-18.37
1293.186;-18.07
1293.385;-17.83
1293.584;-17.64
1293.783;-17.55
1293.982;-17.49
1294.181;-17.52
1294.381;-17.6
1294.58;-17.75
1294.779;-17.99
1294.978;-18.28
1295.177;-18.68
1295.376;-19.15
1295.575;-19.71
1295.774;-20.39
1295.974;-21.18
1296.173;-22.14
1296.372;-23.24
1296.571;-24.55
1296.77;-26.07
1296.969;-27.79
1297.168;-29.98
1297.367;-30.94
1297.566;-30.98
1297.766;-29.71
1297.965;-27.95
1298.164;-26.2
1298.363;-24.46
1298.562;-23.38
1298.761;-22.28
1298.96;-21.35
1299.159;-20.56
1299.358;-19.92
1299.558;-19.35
1299.757;-18.9
1299.956;-18.54
1300.155;-18.26
1300.354;-18.08
1300.553;-17.94
1300.752;-17.9
1300.951;-17.92
1301.15;-18.03
1301.35;-18.22
1301.549;-18.47
1301.748;-18.82
1301.947;-19.23
1302.146;-19.75
1302.345;-20.39
1302.544;-21.13
1302.743;-22.02
1302.943;-23.04
1303.142;-24.27
1303.341;-25.72
1303.54;-27.4
1303.739;-29.75
1303.938;-31.15
1304.137;-32.07
1304.336;-31.37
1304.535;-29.67
1304.735;-27.82
1304.934;-26.14
1305.133;-24.51
1305.332;-23.53
1305.531;-22.54
1305.73;-21.69
1305.929;-20.98
1306.128;-20.4
1306.327;-19.9
1306.527;-19.52
1306.726;-19.2
1306.925;-18.96
1307.124;-18.8
1307.323;-18.69
1307.522;-18.66
1307.721;-18.66
1307.92;-18.72
1308.12;-18.85
1308.319;-18.99
1308.518;-19.19
1308.717;-19.39
1308.916;-19.61
1309.115;-19.85
1309.314;-20.06
1309.513;-20.27
1309.712;-20.41
1309.912;-20.5
1310.111;-20.53
1310.31;-20.48
1310.509;-20.39
1310.708;-20.21
1310.907;-20.0
1311.106;-19.77
1311.305;-19.51
1311.504;-19.28
1311.704;-19.03
1311.903;-18.82
1312.102;-18.61
1312.301;-18.46
1312.5;-18.36
1312.699;-18.28
1312.898;-18.26
1313.097;-18.27
1313.297;-18.35
1313.496;-18.48
1313.695;-18.66
1313.894;-18.92
1314.093;-19.22
1314.292;-19.6
1314.491;-20.03
1314.69;-20.54
1314.889;-21.13
1315.089;-21.79
1315.288;-22.54
1315.487;-23.35
1315.686;-24.23
1315.885;-25.13
1316.084;-25.99
1316.283;-26.74
1316.482;-27.21
1316.681;-27.33
1316.881;-27.07
1317.08;-26.51
1317.279;-25.79
1317.478;-24.99
1317.677;-24.22
1317.876;-23.47
1318.075;-22.81
1318.274;-22.23
1318.474;-21.71
1318.673;-21.3
1318.872;-20.92
1319.071;-20.64
1319.27;-20.4
1319.469;-20.22
1319.668;-20.12
1319.867;-20.06
1320.066;-20.06
1320.266;-20.09
1320.465;-20.19
1320.664;-20.34
1320.863;-20.51
1321.062;-20.74
1321.261;-20.99
1321.46;-21.29
1321.659;-21.6
1321.858;-21.93
1322.058;-22.29
1322.257;-22.63
1322.456;-22.98
1322.655;-23.28
1322.854;-23.56
1323.053;-23.79
1323.252;-23.96
1323.451;-24.08
1323.65;-24.11
1323.85;-24.11
1324.049;-24.06
1324.248;-23.98
1324.447;-23.9
1324.646;-23.79
1324.845;-23.7
1325.044;-23.61
1325.243;-23.56
1325.443;-23.54
1325.642;-23.55
1325.841;-23.61
1326.04;-23.69
1326.239;-23.83
1326.438;-24.0
1326.637;-24.21
1326.836;-24.48
1327.035;-24.78
1327.235;-25.14
1327.434;-25.52
1327.633;-25.96
1327.832;-26.43
1328.031;-26.91
1328.23;-27.42
1328.429;-27.91
1328.628;-28.4
1328.827;-28.92
1329.027;-29.22
1329.226;-29.48
1329.425;-29.65
1329.624;-29.72
1329.823;-29.66
1330.022;-29.53
1330.221;-29.34
1330.42;-29.11
1330.62;-28.87
1330.819;-28.62
1331.018;-28.41
1331.217;-28.21
1331.416;-28.06
1331.615;-27.95
1331.814;-27.89
1332.013;-27.89
1332.212;-27.92
1332.412;-28.03
1332.611;-28.18
1332.81;-28.39
1333.009;-28.67
1333.208;-28.99
1333.407;-29.4
1333.606;-29.85
1333.805;-30.39
1334.004;-30.99
1334.204;-31.68
1334.403;-32.45
1334.602;-33.3
1334.801;-34.24
1335.0;-35.25
1335.199;-36.31
1335.398;-37.38
1335.597;-38.33
1335.797;-39.24
1335.996;-39.46
1336.195;-39.39
1336.394;-38.93
1336.593;-38.26
1336.792;-37.51
1336.991;-36.76
1337.19;-35.96
1337.389;-35.47
1337.589;-34.97
1337.788;-34.53
1337.987;-34.18
1338.186;-33.9
1338.385;-33.7
1338.584;-33.58
1338.783;-33.52
1338.982;-33.54
1339.181;-33.61
1339.381;-33.75
1339.58;-33.95
1339.779;-34.2
1339.978;-34.54
1340.177;-34.92
1340.376;-35.38
1340.575;-35.9
1340.774;-36.47
1340.974;-37.11
1341.173;-37.8
1341.372;-38.73
1341.571;-39.38
1341.77;-40.24
1341.969;-41.09
1342.168;-41.93
1342.367;-42.67
1342.566;-43.24
1342.766;-43.62
1342.965;-43.71
1343.164;-43.61
1343.363;-43.31
1343.562;-42.93
1343.761;-42.52
1343.96;-42.11
1344.159;-41.76
1344.358;-41.43
1344.558;-41.18
1344.757;-40.99
1344.956;-40.85
1345.155;-40.8
1345.354;-40.79
1345.553;-40.87
1345.752;-41.0
1345.951;-41.21
1346.15;-41.49
1346.35;-41.82
1346.549;-42.25
1346.748;-42.7
1346.947;-43.25
1347.146;-43.86
1347.345;-44.52
1347.544;-45.3
1347.743;-46.14
1347.943;-47.02
1348.142;-47.9
1348.341;-48.94
1348.54;-49.49
1348.739;-50.02
1348.938;-50.32
1349.137;-50.32
1349.336;-50.06
1349.535;-49.62
1349.735;-49.09
1349.934;-48.55
1350.133;-48.04
1350.332;-47.64
1350.531;-47.22
1350.73;-46.83
1350.929;-46.49
1351.128;-46.14
1351.327;-46.02
1351.527;-45.92
1351.726;-45.95
1351.925;-45.98
1352.124;-46.07
1352.323;-46.21
1352.522;-46.46
1352.721;-46.71
1352.92;-47.03
1353.12;-47.53
1353.319;-47.93
1353.518;-48.62
1353.717;-49.14
1353.916;-49.79
1354.115;-50.55
1354.314;-51.47
1354.513;-52.47
1354.712;-53.64
1354.912;-54.91
1355.111;-56.16
1355.31;-57.32
1355.509;-58.12
1355.708;-58.94
1355.907;-58.92
1356.106;-58.41
1356.305;-57.56
1356.504;-56.62
1356.704;-55.47
1356.903;-54.88
1357.102;-54.49
1357.301;-53.93
1357.5;-53.43
1357.699;-53.04
1357.898;-52.65
1358.097;-52.35
1358.297;-52.21
1358.496;-52.23
1358.695;-52.19
1358.894;-52.26
1359.093;-52.39
1359.292;-52.48
1359.491;-52.94
1359.69;-53.41
1359.889;-53.9
1360.089;-54.32
1360.288;-54.77
1360.487;-55.26
1360.686;-55.98
1360.885;-56.98
1361.084;-58.07
1361.283;-59.51
1361.482;-60.57
1361.681;-61.76
1361.881;-63.03
1362.08;-64.24
1362.279;-65.36
1362.478;-65.53
1362.677;-64.97
1362.876;-63.77
1363.075;-62.55
1363.274;-61.36
1363.474;-60.45
1363.673;-59.67
1363.872;-59.02
1364.071;-58.57
1364.27;-58.19
1364.469;-58.01
1364.668;-58.15
1364.867;-58.02
1365.066;-57.73
1365.266;-57.71
1365.465;-57.57
1365.664;-57.61
1365.863;-57.69
1366.062;-57.81
1366.261;-57.96
1366.46;-58.26
1366.659;-58.7
1366.858;-59.3
1367.058;-59.91
1367.257;-60.55
1367.456;-61.41
1367.655;-62.22
1367.854;-63.29
1368.053;-64.35
1368.252;-65.4
1368.451;-66.68
1368.65;-67.75
1368.85;-68.98
1369.049;-70.06
1369.248;-70.33
1369.447;-70.12
1369.646;-69.65
1369.845;-69.23
1370.044;-68.55
1370.243;-67.74
1370.443;-66.87
1370.642;-66.13
1370.841;-65.82
1371.04;-65.53
1371.239;-65.16
1371.438;-64.72
1371.637;-64.35
1371.836;-64.09
1372.035;-64.06
1372.235;-64.1
1372.434;-64.12
1372.633;-64.15
1372.832;-64.17
1373.031;-64.24
1373.23;-64.42
1373.429;-64.67
1373.628;-64.95
1373.827;-65.15
1374.027;-65.5
1374.226;-65.75
1374.425;-66.07
1374.624;-66.37
1374.823;-66.73
1375.022;-67.06
1375.221;-67.32
1375.42;-67.43
1375.62;-67.63
1375.819;-67.88
1376.018;-68.06
1376.217;-68.16
1376.416;-68.35
1376.615;-68.43
1376.814;-68.57
1377.013;-68.76
1377.212;-68.84
1377.412;-69.18
1377.611;-69.36
1377.81;-69.39
1378.009;-69.48
1378.208;-69.88
1378.407;-70.2
1378.606;-70.75
1378.805;-71.4
1379.004;-72.05
1379.204;-72.7
1379.403;-72.78
1379.602;-73.31
1379.801;-74.17
1380.0;-74.24
1380.199;-75.17
1380.398;-75.23
1380.597;-76.09
1380.797;-76.27
1380.996;-76.57
1381.195;-76.0
1381.394;-75.26
1381.593;-74.18
1381.792;-73.92
1381.991;-73.65
1382.19;-73.01
1382.389;-72.76
1382.589;-73.08
1382.788;-72.79
1382.987;-72.74
1383.186;-72.33
1383.385;-72.06
1383.584;-71.58
1383.783;-71.45
1383.982;-71.38
1384.181;-71.37
1384.381;-71.63
1384.58;-71.26
1384.779;-71.46
1384.978;-71.98
1385.177;-72.31
1385.376;-72.59
1385.575;-72.91
1385.774;-73.33
1385.974;-73.65
1386.173;-74.41
1386.372;-74.52
1386.571;-75.14
1386.77;-75.18
1386.969;-75.94
1387.168;-75.88
1387.367;-77.06
1387.566;-77.51
1387.766;-77.3
1387.965;-78.18
1388.164;-78.25
1388.363;-78.31
1388.562;-76.81
1388.761;-77.61
1388.96;-76.31
1389.159;-75.65
1389.358;-75.4
1389.558;-75.82
1389.757;-75.72
1389.956;-75.51
1390.155;-75.27
1390.354;-74.85
1390.553;-74.81
1390.752;-74.47
1390.951;-74.38
1391.15;-74.78
1391.35;-75.0
1391.549;-75.05
1391.748;-74.73
1391.947;-75.13
1392.146;-75.81
1392.345;-76.32
1392.544;-75.86
1392.743;-76.27
1392.943;-76.75
1393.142;-77.39
1393.341;-77.62
1393.54;-77.39
1393.739;-78.53
1393.938;-79.46
1394.137;-78.26
1394.336;-79.23
1394.535;-79.11
1394.735;-79.08
1394.934;-81.03
1395.133;-80.75
1395.332;-79.85
1395.531;-80.32
1395.73;-80.36
1395.929;-79.33
1396.128;-80.04
1396.327;-79.08
1396.527;-78.99
1396.726;-78.11
1396.925;-79.89
1397.124;-79.14
1397.323;-78.96
1397.522;-78.75
1397.721;-78.07
1397.92;-77.71
1398.12;-77.6
1398.319;-77.54
1398.518;-77.53
1398.717;-77.5
1398.916;-77.75
1399.115;-77.86
1399.314;-77.93
1399.513;-77.57
1399.712;-78.03
1399.912;-78.43
1400.111;-77.86
1400.31;-77.7
1400.509;-77.26
1400.708;-78.17
1400.907;-79.09
1401.106;-79.51
1401.305;-78.97
1401.504;-78.46
1401.704;-78.54
1401.903;-78.59
1402.102;-77.72
1402.301;-78.33
1402.5;-78.4
1402.699;-79.18
1402.898;-79.21
1403.097;-79.51
1403.297;-80.01
1403.496;-78.35
1403.695;-80.99
1403.894;-79.24
1404.093;-80.99
1404.292;-82.01
1404.491;-80.62
1404.69;-81.66
1404.889;-80.13
1405.089;-80.29
1405.288;-82.25
1405.487;-80.76
1405.686;-80.58
1405.885;-80.33
1406.084;-83.95
1406.283;-81.71
1406.482;-80.21
1406.681;-80.77
1406.881;-80.95
1407.08;-81.35
1407.279;-81.5
1407.478;-81.9
1407.677;-82.33
1407.876;-82.39
1408.075;-82.39
1408.274;-80.59
1408.474;-81.72
1408.673;-80.55
1408.872;-79.48
1409.071;-79.76
1409.27;-80.72
1409.469;-83.03
1409.668;-81.24
1409.867;-80.18
1410.066;-79.22
1410.266;-80.55
1410.465;-81.19
1410.664;-81.1
1410.863;-79.66
1411.062;-79.94
1411.261;-79.35
1411.46;-81.14
1411.659;-80.59
1411.858;-81.0
1412.058;-80.02
1412.257;-78.95
1412.456;-79.8
1412.655;-79.87
1412.854;-80.06
1413.053;-80.59
1413.252;-80.26
1413.451;-80.95
1413.65;-80.73
1413.85;-81.73
1414.049;-80.23
1414.248;-81.01
1414.447;-79.53
1414.646;-81.62
1414.845;-79.74
1415.044;-79.36
1415.243;-79.53
1415.443;-80.91
1415.642;-80.31
1415.841;-81.41
1416.04;-79.43
1416.239;-79.53
1416.438;-79.23
1416.637;-80.07
1416.836;-81.46
1417.035;-80.96
1417.235;-79.88
1417.434;-79.53
1417.633;-81.57
1417.832;-80.91
1418.031;-79.46
1418.23;-79.26
1418.429;-80.35
1418.628;-79.7
1418.827;-79.53
1419.027;-79.53
1419.226;-79.26
1419.425;-79.2
1419.624;-81.31
1419.823;-80.43
1420.022;-79.84
1420.221;-81.11
1420.42;-80.69
1420.62;-79.99
1420.819;-80.69
1421.018;-80.15
1421.217;-80.03
1421.416;-80.35
1421.615;-79.93
1421.814;-80.61
1422.013;-79.44
1422.212;-79.75
1422.412;-80.12
1422.611;-79.47
1422.81;-81.07
1423.009;-79.37
1423.208;-78.91
1423.407;-79.21
1423.606;-79.44
1423.805;-81.16
1424.004;-79.44
1424.204;-80.2
1424.403;-80.61
1424.602;-79.37
1424.801;-79.54
1425.0;-80.0
