Wavelength (nm);Intensity (dBm)
1131.0;1131.0
1200.0;-62.17
1200.199;-62.13
1200.398;-62.03
1200.597;-61.96
1200.797;-61.9
1200.996;-61.89
1201.195;-61.85
1201.394;-61.78
1201.593;-61.7
1201.792;-61.7
1201.991;-61.69
1202.19;-61.6
1202.389;-61.55
1202.589;-61.56
1202.788;-61.57
1202.987;-61.57
1203.186;-61.5
1203.385;-61.46
1203.584;-61.51
1203.783;-61.52
1203.982;-61.43
1204.181;-61.4
1204.381;-61.43
1204.58;-61.46
1204.779;-61.37
1204.978;-61.35
1205.177;-61.34
1205.376;-61.34
1205.575;-61.34
1205.774;-61.27
1205.974;-61.27
1206.173;-61.27
1206.372;-61.22
1206.571;-61.15
1206.77;-61.08
1206.969;-61.09
1207.168;-61.01
1207.367;-60.92
1207.566;-60.84
1207.766;-60.8
1207.965;-60.73
1208.164;-60.62
1208.363;-60.51
1208.562;-60.49
1208.761;-60.46
1208.96;-60.42
1209.159;-60.33
1209.358;-60.29
1209.558;-60.33
1209.757;-60.28
1209.956;-60.24
1210.155;-60.23
1210.354;-60.25
1210.553;-60.27
1210.752;-60.25
1210.951;-60.23
1211.15;-60.26
1211.35;-60.3
1211.549;-60.31
1211.748;-60.26
1211.947;-60.29
1212.146;-60.31
1212.345;-60.3
1212.544;-60.31
1212.743;-60.27
1212.943;-60.28
1213.142;-60.27
1213.341;-60.21
1213.54;-60.14
1213.739;-60.12
1213.938;-60.05
1214.137;-59.95
1214.336;-59.84
1214.535;-59.82
1214.735;-59.73
1214.934;-59.62
1215.133;-59.53
1215.332;-59.46
1215.531;-59.43
1215.73;-59.33
1215.929;-59.28
1216.128;-59.25
1216.327;-59.21
1216.527;-59.2
1216.726;-59.14
1216.925;-59.12
1217.124;-59.11
1217.323;-59.08
1217.522;-59.08
1217.721;-59.05
1217.92;-59.05
1218.12;-59.05
1218.319;-59.01
1218.518;-59.02
1218.717;-59.02
1218.916;-59.03
1219.115;-59.01
1219.314;-58.97
1219.513;-58.99
1219.712;-58.96
1219.912;-58.92
1220.111;-58.85
1220.31;-58.8
1220.509;-58.76
1220.708;-58.66
1220.907;-58.57
1221.106;-58.48
1221.305;-58.39
1221.504;-58.29
1221.704;-58.18
1221.903;-58.12
1222.102;-58.04
1222.301;-57.97
1222.5;-57.9
1222.699;-57.84
1222.898;-57.83
1223.097;-57.81
1223.297;-57.76
1223.496;-57.77
1223.695;-57.75
1223.894;-57.74
1224.093;-57.72
1224.292;-57.69
1224.491;-57.67
1224.69;-57.62
1224.889;-57.56
1225.089;-57.49
1225.288;-57.41
1225.487;-57.35
1225.686;-57.22
1225.885;-57.12
1226.084;-57.0
1226.283;-56.88
1226.482;-56.73
1226.681;-56.58
1226.881;-56.45
1227.08;-56.29
1227.279;-56.13
1227.478;-55.99
1227.677;-55.83
1227.876;-55.67
1228.075;-55.53
1228.274;-55.41
1228.474;-55.33
1228.673;-55.23
1228.872;-55.17
1229.071;-55.11
1229.27;-55.1
1229.469;-55.1
1229.668;-55.1
1229.867;-55.13
1230.066;-55.2
1230.266;-55.25
1230.465;-55.32
1230.664;-55.4
1230.863;-55.5
1231.062;-55.59
1231.261;-55.66
1231.46;-55.76
1231.659;-55.79
1231.858;-55.81
1232.058;-55.81
1232.257;-55.77
1232.456;-55.75
1232.655;-55.64
1232.854;-55.51
1233.053;-55.37
1233.252;-55.2
1233.451;-55.01
1233.65;-54.81
1233.85;-54.61
1234.049;-54.4
1234.248;-54.19
1234.447;-54.01
1234.646;-53.83
1234.845;-53.69
1235.044;-53.54
1235.243;-53.42
1235.443;-53.35
1235.642;-53.29
1235.841;-53.24
1236.04;-53.23
1236.239;-53.23
1236.438;-53.26
1236.637;-53.3
1236.836;-53.35
1237.035;-53.41
1237.235;-53.46
1237.434;-53.51
1237.633;-53.55
1237.832;-53.61
1238.031;-53.61
1238.23;-53.6
1238.429;-53.58
1238.628;-53.55
1238.827;-53.48
1239.027;-53.39
1239.226;-53.28
1239.425;-53.17
1239.624;-53.03
1239.823;-52.89
1240.022;-52.74
1240.221;-52.58
1240.42;-52.42
1240.62;-52.27
1240.819;-52.14
1241.018;-51.97
1241.217;-51.84
1241.416;-51.74
1241.615;-51.62
1241.814;-51.54
1242.013;-51.45
1242.212;-51.39
1242.412;-51.33
1242.611;-51.25
1242.81;-51.19
1243.009;-51.09
1243.208;-50.98
1243.407;-50.85
1243.606;-50.67
1243.805;-50.5
1244.004;-50.26
1244.204;-50.01
1244.403;-49.75
1244.602;-49.47
1244.801;-49.2
1245.0;-48.92
1245.199;-48.66
1245.398;-48.41
1245.597;-48.17
1245.797;-47.98
1245.996;-47.78
1246.195;-47.62
1246.394;-47.49
1246.593;-47.38
1246.792;-47.32
1246.991;-47.25
1247.19;-47.24
1247.389;-47.25
1247.589;-47.27
1247.788;-47.33
1247.987;-47.38
1248.186;-47.47
1248.385;-47.55
1248.584;-47.61
1248.783;-47.67
1248.982;-47.66
1249.181;-47.62
1249.381;-47.49
1249.58;-47.29
1249.779;-47.04
1249.978;-46.68
1250.177;-46.3
1250.376;-45.87
1250.575;-45.33
1250.774;-44.94
1250.974;-44.49
1251.173;-44.05
1251.372;-43.62
1251.571;-43.25
1251.77;-42.88
1251.969;-42.55
1252.168;-42.26
1252.367;-42.0
1252.566;-41.79
1252.766;-41.58
1252.965;-41.44
1253.164;-41.31
1253.363;-41.21
1253.562;-41.17
1253.761;-41.12
1253.96;-41.12
1254.159;-41.13
1254.358;-41.16
1254.558;-41.21
1254.757;-41.22
1254.956;-41.22
1255.155;-41.19
1255.354;-41.09
1255.553;-40.96
1255.752;-40.72
1255.951;-40.43
1256.15;-40.08
1256.35;-39.67
1256.549;-39.26
1256.748;-38.8
1256.947;-38.35
1257.146;-37.91
1257.345;-37.5
1257.544;-37.14
1257.743;-36.78
1257.943;-36.47
1258.142;-36.19
1258.341;-35.92
1258.54;-35.78
1258.739;-35.63
1258.938;-35.54
1259.137;-35.48
1259.336;-35.48
1259.535;-35.53
1259.735;-35.63
1259.934;-35.8
1260.133;-36.03
1260.332;-36.33
1260.531;-36.72
1260.73;-37.17
1260.929;-37.72
1261.128;-38.45
1261.327;-39.02
1261.527;-39.7
1261.726;-40.34
1261.925;-40.77
1262.124;-40.87
1262.323;-40.57
1262.522;-39.89
1262.721;-38.97
1262.92;-37.92
1263.12;-36.87
1263.319;-35.69
1263.518;-34.93
1263.717;-34.08
1263.916;-33.31
1264.115;-32.63
1264.314;-32.0
1264.513;-31.46
1264.712;-30.99
1264.912;-30.58
1265.111;-30.24
1265.31;-29.94
1265.509;-29.73
1265.708;-29.57
1265.907;-29.46
1266.106;-29.43
1266.305;-29.45
1266.504;-29.56
1266.704;-29.74
1266.903;-29.98
1267.102;-30.33
1267.301;-30.75
1267.5;-31.29
1267.699;-31.95
1267.898;-32.71
1268.097;-33.66
1268.297;-34.74
1268.496;-36.03
1268.695;-37.48
1268.894;-39.38
1269.093;-40.44
1269.292;-41.02
1269.491;-40.47
1269.69;-39.04
1269.889;-37.4
1270.089;-35.59
1270.288;-34.42
1270.487;-33.22
1270.686;-32.16
1270.885;-31.25
1271.084;-30.45
1271.283;-29.77
1271.482;-29.2
1271.681;-28.71
1271.881;-28.33
1272.08;-28.02
1272.279;-27.8
1272.478;-27.65
1272.677;-27.57
1272.876;-27.58
1273.075;-27.63
1273.274;-27.77
1273.474;-27.95
1273.673;-28.19
1273.872;-28.48
1274.071;-28.78
1274.27;-29.1
1274.469;-29.37
1274.668;-29.59
1274.867;-29.73
1275.066;-29.71
1275.266;-29.58
1275.465;-29.28
1275.664;-28.87
1275.863;-28.37
1276.062;-27.81
1276.261;-27.23
1276.46;-26.62
1276.659;-25.96
1276.858;-25.5
1277.058;-25.0
1277.257;-24.53
1277.456;-24.11
1277.655;-23.76
1277.854;-23.43
1278.053;-23.18
1278.252;-22.97
1278.451;-22.81
1278.65;-22.72
1278.85;-22.67
1279.049;-22.7
1279.248;-22.77
1279.447;-22.9
1279.646;-23.11
1279.845;-23.35
1280.044;-23.66
1280.243;-24.02
1280.443;-24.43
1280.642;-24.89
1280.841;-25.36
1281.04;-25.85
1281.239;-26.29
1281.438;-26.67
1281.637;-26.92
1281.836;-26.99
1282.035;-26.87
1282.235;-26.52
1282.434;-26.03
1282.633;-25.43
1282.832;-24.76
1283.031;-24.11
1283.23;-23.43
1283.429;-22.82
1283.628;-22.24
1283.827;-21.71
1284.027;-21.26
1284.226;-20.85
1284.425;-20.52
1284.624;-20.24
1284.823;-20.02
1285.022;-19.88
1285.221;-19.78
1285.42;-19.76
1285.62;-19.78
1285.819;-19.88
1286.018;-20.06
1286.217;-20.29
1286.416;-20.62
1286.615;-21.02
1286.814;-21.5
1287.013;-22.08
1287.212;-22.75
1287.412;-23.54
1287.611;-24.41
1287.81;-25.37
1288.009;-26.38
1288.208;-27.31
1288.407;-28.0
1288.606;-28.25
1288.805;-27.9
1289.004;-27.09
1289.204;-25.88
1289.403;-24.95
1289.602;-23.89
1289.801;-22.93
1290.0;-22.04
1290.199;-21.29
1290.398;-20.62
1290.597;-20.04
1290.797;-19.55
1290.996;-19.12
1291.195;-18.81
1291.394;-18.54
1291.593;-18.35
1291.792;-18.25
1291.991;-18.2
1292.19;-18.25
1292.389;-18.35
1292.589;-18.52
1292.788;-18.78
1292.987;-19.11
1293.186;-19.55
1293.385;-20.06
1293.584;-20.68
1293.783;-21.42
1293.982;-22.28
1294.181;-23.29
1294.381;-24.41
1294.58;-25.67
1294.779;-26.94
1294.978;-28.04
1295.177;-28.7
1295.376;-28.35
1295.575;-27.37
1295.774;-25.85
1295.974;-24.72
1296.173;-23.47
1296.372;-22.36
1296.571;-21.36
1296.77;-20.5
1296.969;-19.76
1297.168;-19.11
1297.367;-18.58
1297.566;-18.09
1297.766;-17.71
1297.965;-17.38
1298.164;-17.13
1298.363;-16.95
1298.562;-16.79
1298.761;-16.73
1298.96;-16.7
1299.159;-16.73
1299.358;-16.81
1299.558;-16.92
1299.757;-17.09
1299.956;-17.29
1300.155;-17.54
1300.354;-17.82
1300.553;-18.1
1300.752;-18.42
1300.951;-18.72
1301.15;-19.03
1301.35;-19.29
1301.549;-19.52
1301.748;-19.68
1301.947;-19.75
1302.146;-19.78
1302.345;-19.71
1302.544;-19.58
1302.743;-19.41
1302.943;-19.18
1303.142;-18.97
1303.341;-18.72
1303.54;-18.5
1303.739;-18.3
1303.938;-18.12
1304.137;-18.0
1304.336;-17.89
1304.535;-17.85
1304.735;-17.86
1304.934;-17.91
1305.133;-18.05
1305.332;-18.21
1305.531;-18.48
1305.73;-18.8
1305.929;-19.19
1306.128;-19.7
1306.327;-20.26
1306.527;-20.96
1306.726;-21.76
1306.925;-22.69
1307.124;-23.8
1307.323;-25.05
1307.522;-26.49
1307.721;-28.04
1307.92;-29.87
1308.12;-30.55
1308.319;-30.46
1308.518;-29.41
1308.717;-27.9
1308.916;-26.4
1309.115;-24.8
1309.314;-23.85
1309.513;-22.83
1309.712;-21.97
1309.912;-21.22
1310.111;-20.6
1310.31;-20.09
1310.509;-19.65
1310.708;-19.31
1310.907;-19.02
1311.106;-18.82
1311.305;-18.69
1311.504;-18.61
1311.704;-18.6
1311.903;-18.63
1312.102;-18.71
1312.301;-18.85
1312.5;-19.02
1312.699;-19.24
1312.898;-19.46
1313.097;-19.72
1313.297;-19.98
1313.496;-20.25
1313.695;-20.5
1313.894;-20.68
1314.093;-20.85
1314.292;-20.93
1314.491;-20.95
1314.69;-20.91
1314.889;-20.78
1315.089;-20.62
1315.288;-20.4
1315.487;-20.19
1315.686;-19.94
1315.885;-19.7
1316.084;-19.5
1316.283;-19.29
1316.482;-19.14
1316.681;-19.0
1316.881;-18.91
1317.08;-18.88
1317.279;-18.87
1317.478;-18.93
1317.677;-19.01
1317.876;-19.15
1318.075;-19.35
1318.274;-19.6
1318.474;-19.91
1318.673;-20.27
1318.872;-20.7
1319.071;-21.19
1319.27;-21.74
1319.469;-22.37
1319.668;-23.05
1319.867;-23.81
1320.066;-24.61
1320.266;-25.44
1320.465;-26.28
1320.664;-27.05
1320.863;-27.68
1321.062;-28.06
1321.261;-28.17
1321.46;-27.99
1321.659;-27.58
1321.858;-27.05
1322.058;-26.44
1322.257;-25.86
1322.456;-25.31
1322.655;-24.8
1322.854;-24.39
1323.053;-24.02
1323.252;-23.75
1323.451;-23.52
1323.65;-23.37
1323.85;-23.31
1324.049;-23.29
1324.248;-23.37
1324.447;-23.48
1324.646;-23.68
1324.845;-23.95
1325.044;-24.29
1325.243;-24.72
1325.443;-25.21
1325.642;-25.8
1325.841;-26.47
1326.04;-27.23
1326.239;-28.12
1326.438;-29.32
1326.637;-30.27
1326.836;-31.53
1327.035;-32.96
1327.235;-34.49
1327.434;-36.01
1327.633;-37.22
1327.832;-37.71
1328.031;-37.35
1328.23;-36.37
1328.429;-35.23
1328.628;-34.13
1328.827;-33.15
1329.027;-32.34
1329.226;-31.66
1329.425;-31.13
1329.624;-30.69
1329.823;-30.39
1330.022;-30.19
1330.221;-30.08
1330.42;-30.07
1330.62;-30.14
1330.819;-30.31
1331.018;-30.57
1331.217;-30.91
1331.416;-31.37
1331.615;-31.9
1331.814;-32.55
1332.013;-33.3
1332.212;-34.16
1332.412;-35.16
1332.611;-36.25
1332.81;-37.42
1333.009;-38.77
1333.208;-39.49
1333.407;-39.93
1333.606;-39.79
1333.805;-39.11
1334.004;-38.14
1334.204;-37.11
1334.403;-35.93
1334.602;-35.2
1334.801;-34.41
1335.0;-33.75
1335.199;-33.16
1335.398;-32.69
1335.597;-32.31
1335.797;-32.01
1335.996;-31.81
1336.195;-31.65
1336.394;-31.57
1336.593;-31.55
1336.792;-31.59
1336.991;-31.73
1337.19;-31.9
1337.389;-32.17
1337.589;-32.48
1337.788;-32.87
1337.987;-33.34
1338.186;-33.87
1338.385;-34.51
1338.584;-35.21
1338.783;-36.03
1338.982;-36.96
1339.181;-38.03
1339.381;-39.52
1339.58;-40.67
1339.779;-42.29
1339.978;-44.16
1340.177;-46.25
1340.376;-48.28
1340.575;-49.79
1340.774;-49.27
1340.974;-47.83
1341.173;-45.9
1341.372;-44.68
1341.571;-43.45
1341.77;-42.43
1341.969;-41.62
1342.168;-40.96
1342.367;-40.46
1342.566;-40.07
1342.766;-39.8
1342.965;-39.65
1343.164;-39.57
1343.363;-39.6
1343.562;-39.69
1343.761;-39.89
1343.96;-40.17
1344.159;-40.53
1344.358;-40.99
1344.558;-41.52
1344.757;-42.16
1344.956;-42.89
1345.155;-43.74
1345.354;-44.72
1345.553;-45.83
1345.752;-47.09
1345.951;-48.84
1346.15;-50.09
1346.35;-51.59
1346.549;-52.82
1346.748;-53.25
1346.947;-52.76
1347.146;-51.7
1347.345;-50.44
1347.544;-49.33
1347.743;-48.33
1347.943;-47.45
1348.142;-46.69
1348.341;-45.98
1348.54;-45.56
1348.739;-45.16
1348.938;-44.86
1349.137;-44.63
1349.336;-44.47
1349.535;-44.42
1349.735;-44.41
1349.934;-44.52
1350.133;-44.69
1350.332;-44.98
1350.531;-45.31
1350.73;-45.69
1350.929;-46.13
1351.128;-46.6
1351.327;-47.2
1351.527;-47.89
1351.726;-48.94
1351.925;-49.7
1352.124;-50.75
1352.323;-51.89
1352.522;-53.18
1352.721;-54.53
1352.92;-55.89
1353.12;-57.12
1353.319;-57.64
1353.518;-57.51
1353.717;-56.83
1353.916;-55.74
1354.115;-54.7
1354.314;-53.77
1354.513;-52.93
1354.712;-52.35
1354.912;-51.81
1355.111;-51.28
1355.31;-50.77
1355.509;-50.28
1355.708;-50.15
1355.907;-50.1
1356.106;-49.98
1356.305;-49.86
1356.504;-49.85
1356.704;-49.72
1356.903;-49.88
1357.102;-50.31
1357.301;-50.69
1357.5;-51.11
1357.699;-51.58
1357.898;-52.03
1358.097;-52.53
1358.297;-53.24
1358.496;-54.1
1358.695;-54.99
1358.894;-56.04
1359.093;-57.23
1359.292;-58.35
1359.491;-60.18
1359.69;-61.3
1359.889;-62.58
1360.089;-63.17
1360.288;-62.98
1360.487;-62.1
1360.686;-61.15
1360.885;-60.3
1361.084;-59.42
1361.283;-58.45
1361.482;-57.63
1361.681;-57.14
1361.881;-56.58
1362.08;-56.12
1362.279;-56.12
1362.478;-56.01
1362.677;-55.78
1362.876;-55.43
1363.075;-55.22
1363.274;-54.91
1363.474;-54.99
1363.673;-55.13
1363.872;-55.42
1364.071;-55.81
1364.27;-56.29
1364.469;-56.9
1364.668;-57.8
1364.867;-58.8
1365.066;-59.31
1365.266;-60.26
1365.465;-60.88
1365.664;-61.95
1365.863;-63.11
1366.062;-64.31
1366.261;-65.47
1366.46;-66.59
1366.659;-67.51
1366.858;-67.9
1367.058;-67.45
1367.257;-66.52
1367.456;-65.71
1367.655;-64.91
1367.854;-64.06
1368.053;-63.13
1368.252;-62.29
1368.451;-62.01
1368.65;-61.5
1368.85;-61.06
1369.049;-60.62
1369.248;-60.23
1369.447;-59.92
1369.646;-59.83
1369.845;-60.03
1370.044;-60.17
1370.243;-60.27
1370.443;-60.42
1370.642;-60.54
1370.841;-61.01
1371.04;-61.49
1371.239;-62.03
1371.438;-62.44
1371.637;-62.89
1371.836;-63.31
1372.035;-64.05
1372.235;-64.93
1372.434;-65.78
1372.633;-66.64
1372.832;-67.48
1373.031;-68.29
1373.23;-69.18
1373.429;-69.94
1373.628;-70.44
1373.827;-70.66
1374.027;-70.48
1374.226;-70.15
1374.425;-69.55
1374.624;-69.05
1374.823;-68.54
1375.022;-68.06
1375.221;-67.43
1375.42;-66.86
1375.62;-66.49
1375.819;-66.16
1376.018;-65.95
1376.217;-65.71
1376.416;-65.58
1376.615;-65.43
1376.814;-65.46
1377.013;-65.54
1377.212;-65.66
1377.412;-65.61
1377.611;-65.65
1377.81;-65.67
1378.009;-65.76
1378.208;-65.96
1378.407;-66.17
1378.606;-66.54
1378.805;-66.94
1379.004;-67.2
1379.204;-67.5
1379.403;-67.73
1379.602;-67.88
1379.801;-68.07
1380.0;-68.38
1380.199;-68.79
1380.398;-69.19
1380.597;-70.01
1380.797;-70.7
1380.996;-71.03
1381.195;-71.36
1381.394;-71.48
1381.593;-71.52
1381.792;-71.94
1381.991;-72.49
1382.19;-72.87
1382.389;-73.34
1382.589;-74.17
1382.788;-75.94
1382.987;-76.54
1383.186;-76.2
1383.385;-76.28
1383.584;-77.85
1383.783;-78.4
1383.982;-77.85
1384.181;-79.21
1384.381;-78.37
1384.58;-79.49
1384.779;-78.25
1384.978;-78.68
1385.177;-77.73
1385.376;-77.73
1385.575;-77.02
1385.774;-76.03
1385.974;-75.21
1386.173;-74.72
1386.372;-74.76
1386.571;-73.68
1386.77;-73.6
1386.969;-73.44
1387.168;-72.82
1387.367;-72.75
1387.566;-72.5
1387.766;-72.62
1387.965;-72.73
1388.164;-72.44
1388.363;-72.71
1388.562;-72.62
1388.761;-72.58
1388.96;-72.18
1389.159;-72.23
1389.358;-72.54
1389.558;-72.55
1389.757;-72.94
1389.956;-72.88
1390.155;-73.08
1390.354;-73.65
1390.553;-73.69
1390.752;-73.86
1390.951;-74.2
1391.15;-74.76
1391.35;-74.83
1391.549;-75.52
1391.748;-75.52
1391.947;-75.23
1392.146;-75.68
1392.345;-76.27
1392.544;-76.02
1392.743;-76.27
1392.943;-76.44
1393.142;-75.45
1393.341;-75.44
1393.54;-75.68
1393.739;-75.68
1393.938;-75.33
1394.137;-74.64
1394.336;-75.66
1394.535;-75.6
1394.735;-74.93
1394.934;-75.81
1395.133;-75.63
1395.332;-75.38
1395.531;-75.25
1395.73;-75.5
1395.929;-75.61
1396.128;-75.5
1396.327;-75.44
1396.527;-76.24
1396.726;-76.68
1396.925;-76.16
1397.124;-76.61
1397.323;-76.3
1397.522;-76.1
1397.721;-77.15
1397.92;-77.01
1398.12;-77.2
1398.319;-77.56
1398.518;-78.38
1398.717;-77.32
1398.916;-78.68
1399.115;-77.95
1399.314;-79.12
1399.513;-79.61
1399.712;-77.91
1399.912;-79.75
1400.111;-78.48
1400.31;-79.0
1400.509;-79.0
1400.708;-80.09
1400.907;-79.65
1401.106;-80.25
1401.305;-79.0
1401.504;-79.31
1401.704;-80.67
1401.903;-79.68
1402.102;-78.38
1402.301;-79.44
1402.5;-78.43
1402.699;-78.4
1402.898;-76.92
1403.097;-79.44
1403.297;-79.28
1403.496;-78.54
1403.695;-79.24
1403.894;-79.24
1404.093;-78.27
1404.292;-78.85
1404.491;-79.15
1404.69;-80.89
1404.889;-79.79
1405.089;-81.34
1405.288;-79.15
1405.487;-79.61
1405.686;-78.73
1405.885;-79.24
1406.084;-80.89
1406.283;-79.34
1406.482;-78.7
1406.681;-80.22
1406.881;-80.9
1407.08;-79.32
1407.279;-80.1
1407.478;-80.22
1407.677;-79.52
1407.876;-79.98
1408.075;-81.56
1408.274;-80.59
1408.474;-81.84
1408.673;-80.38
1408.872;-79.52
1409.071;-81.14
1409.27;-80.38
1409.469;-80.9
1409.668;-81.35
1409.867;-80.68
1410.066;-80.14
1410.266;-82.2
1410.465;-82.46
1410.664;-80.59
1410.863;-81.67
1411.062;-80.26
1411.261;-79.73
1411.46;-79.73
1411.659;-80.02
1411.858;-81.1
1412.058;-82.26
1412.257;-81.3
1412.456;-80.14
1412.655;-81.05
1412.854;-80.02
1413.053;-81.45
1413.252;-79.35
1413.451;-80.14
1413.65;-81.15
1413.85;-80.51
1414.049;-80.6
1414.248;-81.01
1414.447;-80.73
1414.646;-81.36
1414.845;-82.47
1415.044;-80.91
1415.243;-81.85
1415.443;-81.11
1415.642;-79.88
1415.841;-81.06
1416.04;-81.11
1416.239;-81.31
1416.438;-79.3
1416.637;-80.43
1416.836;-80.51
1417.035;-80.56
1417.235;-79.2
1417.434;-79.88
1417.633;-80.91
1417.832;-80.91
1418.031;-79.88
1418.23;-79.49
1418.429;-80.43
1418.628;-79.53
1418.827;-79.46
1419.027;-81.11
1419.226;-80.6
1419.425;-80.78
1419.624;-80.19
1419.823;-79.2
1420.022;-80.23
1420.221;-80.73
1420.42;-79.08
1420.62;-81.06
1420.819;-79.77
1421.018;-79.26
1421.217;-81.25
1421.416;-79.99
1421.615;-81.52
1421.814;-80.92
1422.013;-79.31
1422.212;-79.4
1422.412;-79.85
1422.611;-81.37
1422.81;-79.47
1423.009;-80.28
1423.208;-79.64
1423.407;-78.73
1423.606;-79.15
1423.805;-79.64
1424.004;-80.28
1424.204;-78.57
1424.403;-79.75
1424.602;-78.73
1424.801;-80.28
1425.0;-78.68
