Wavelength (nm);Intensity (dBm)
1131.0;1131.0
1200.0;-62.02
1200.199;-61.98
1200.398;-61.95
1200.597;-61.87
1200.797;-61.85
1200.996;-61.87
1201.195;-61.83
1201.394;-61.75
1201.593;-61.67
1201.792;-61.69
1201.991;-61.64
1202.19;-61.56
1202.389;-61.51
1202.589;-61.44
1202.788;-61.41
1202.987;-61.34
1203.186;-61.26
1203.385;-61.17
1203.584;-61.15
1203.783;-61.16
1203.982;-61.05
1204.181;-60.98
1204.381;-60.97
1204.58;-60.99
1204.779;-60.93
1204.978;-60.89
1205.177;-60.88
1205.376;-60.93
1205.575;-60.94
1205.774;-60.94
1205.974;-60.93
1206.173;-61.0
1206.372;-61.08
1206.571;-61.07
1206.77;-61.1
1206.969;-61.16
1207.168;-61.2
1207.367;-61.17
1207.566;-61.18
1207.766;-61.16
1207.965;-61.16
1208.164;-61.13
1208.363;-61.07
1208.562;-61.0
1208.761;-60.96
1208.96;-60.9
1209.159;-60.75
1209.358;-60.69
1209.558;-60.63
1209.757;-60.53
1209.956;-60.41
1210.155;-60.3
1210.354;-60.22
1210.553;-60.14
1210.752;-60.07
1210.951;-59.93
1211.15;-59.85
1211.35;-59.83
1211.549;-59.77
1211.748;-59.7
1211.947;-59.68
1212.146;-59.68
1212.345;-59.69
1212.544;-59.68
1212.743;-59.65
1212.943;-59.7
1213.142;-59.75
1213.341;-59.74
1213.54;-59.75
1213.739;-59.79
1213.938;-59.82
1214.137;-59.8
1214.336;-59.8
1214.535;-59.81
1214.735;-59.81
1214.934;-59.78
1215.133;-59.71
1215.332;-59.66
1215.531;-59.64
1215.73;-59.57
1215.929;-59.47
1216.128;-59.37
1216.327;-59.29
1216.527;-59.19
1216.726;-59.07
1216.925;-58.92
1217.124;-58.82
1217.323;-58.73
1217.522;-58.59
1217.721;-58.48
1217.92;-58.4
1218.12;-58.34
1218.319;-58.26
1218.518;-58.19
1218.717;-58.19
1218.916;-58.19
1219.115;-58.16
1219.314;-58.18
1219.513;-58.23
1219.712;-58.29
1219.912;-58.32
1220.111;-58.35
1220.31;-58.39
1220.509;-58.45
1220.708;-58.5
1220.907;-58.49
1221.106;-58.49
1221.305;-58.52
1221.504;-58.48
1221.704;-58.44
1221.903;-58.37
1222.102;-58.3
1222.301;-58.23
1222.5;-58.1
1222.699;-57.98
1222.898;-57.88
1223.097;-57.74
1223.297;-57.58
1223.496;-57.38
1223.695;-57.26
1223.894;-57.09
1224.093;-56.9
1224.292;-56.76
1224.491;-56.62
1224.69;-56.51
1224.889;-56.38
1225.089;-56.28
1225.288;-56.22
1225.487;-56.18
1225.686;-56.15
1225.885;-56.14
1226.084;-56.18
1226.283;-56.23
1226.482;-56.27
1226.681;-56.35
1226.881;-56.44
1227.08;-56.51
1227.279;-56.61
1227.478;-56.67
1227.677;-56.75
1227.876;-56.79
1228.075;-56.79
1228.274;-56.8
1228.474;-56.77
1228.673;-56.74
1228.872;-56.62
1229.071;-56.5
1229.27;-56.41
1229.469;-56.25
1229.668;-56.09
1229.867;-55.91
1230.066;-55.75
1230.266;-55.52
1230.465;-55.35
1230.664;-55.2
1230.863;-55.06
1231.062;-54.91
1231.261;-54.8
1231.46;-54.71
1231.659;-54.65
1231.858;-54.59
1232.058;-54.58
1232.257;-54.59
1232.456;-54.63
1232.655;-54.69
1232.854;-54.75
1233.053;-54.86
1233.252;-54.96
1233.451;-55.04
1233.65;-55.18
1233.85;-55.26
1234.049;-55.35
1234.248;-55.4
1234.447;-55.41
1234.646;-55.43
1234.845;-55.38
1235.044;-55.29
1235.243;-55.18
1235.443;-55.03
1235.642;-54.87
1235.841;-54.64
1236.04;-54.44
1236.239;-54.2
1236.438;-53.95
1236.637;-53.74
1236.836;-53.5
1237.035;-53.3
1237.235;-53.09
1237.434;-52.89
1237.633;-52.75
1237.832;-52.61
1238.031;-52.49
1238.23;-52.39
1238.429;-52.32
1238.628;-52.29
1238.827;-52.24
1239.027;-52.24
1239.226;-52.24
1239.425;-52.25
1239.624;-52.26
1239.823;-52.26
1240.022;-52.28
1240.221;-52.26
1240.42;-52.22
1240.62;-52.19
1240.819;-52.12
1241.018;-52.02
1241.217;-51.89
1241.416;-51.77
1241.615;-51.63
1241.814;-51.47
1242.013;-51.32
1242.212;-51.17
1242.412;-51.03
1242.611;-50.89
1242.81;-50.77
1243.009;-50.67
1243.208;-50.56
1243.407;-50.49
1243.606;-50.44
1243.805;-50.4
1244.004;-50.38
1244.204;-50.36
1244.403;-50.37
1244.602;-50.38
1244.801;-50.38
1245.0;-50.39
1245.199;-50.38
1245.398;-50.34
1245.597;-50.27
1245.797;-50.16
1245.996;-50.02
1246.195;-49.82
1246.394;-49.59
1246.593;-49.32
1246.792;-49.01
1246.991;-48.68
1247.19;-48.34
1247.389;-47.99
1247.589;-47.64
1247.788;-47.31
1247.987;-47.0
1248.186;-46.71
1248.385;-46.45
1248.584;-46.22
1248.783;-46.04
1248.982;-45.91
1249.181;-45.78
1249.381;-45.75
1249.58;-45.71
1249.779;-45.73
1249.978;-45.78
1250.177;-45.87
1250.376;-45.99
1250.575;-46.08
1250.774;-46.21
1250.974;-46.32
1251.173;-46.36
1251.372;-46.36
1251.571;-46.26
1251.77;-46.07
1251.969;-45.77
1252.168;-45.37
1252.367;-44.92
1252.566;-44.38
1252.766;-43.82
1252.965;-43.26
1253.164;-42.68
1253.363;-42.14
1253.562;-41.61
1253.761;-41.13
1253.96;-40.68
1254.159;-40.28
1254.358;-39.94
1254.558;-39.64
1254.757;-39.4
1254.956;-39.21
1255.155;-39.09
1255.354;-39.03
1255.553;-39.03
1255.752;-39.11
1255.951;-39.23
1256.15;-39.45
1256.35;-39.75
1256.549;-40.12
1256.748;-40.58
1256.947;-41.12
1257.146;-41.74
1257.345;-42.46
1257.544;-43.21
1257.743;-43.96
1257.943;-44.57
1258.142;-44.89
1258.341;-44.76
1258.54;-44.15
1258.739;-43.2
1258.938;-42.05
1259.137;-40.89
1259.336;-39.76
1259.535;-38.69
1259.735;-37.73
1259.934;-36.83
1260.133;-36.05
1260.332;-35.22
1260.531;-34.73
1260.73;-34.18
1260.929;-33.71
1261.128;-33.32
1261.327;-32.99
1261.527;-32.75
1261.726;-32.55
1261.925;-32.43
1262.124;-32.39
1262.323;-32.39
1262.522;-32.5
1262.721;-32.66
1262.92;-32.91
1263.12;-33.25
1263.319;-33.68
1263.518;-34.23
1263.717;-34.88
1263.916;-35.68
1264.115;-36.65
1264.314;-37.79
1264.513;-39.41
1264.712;-40.6
1264.912;-41.92
1265.111;-42.59
1265.31;-42.09
1265.509;-40.68
1265.708;-38.92
1265.907;-37.24
1266.106;-35.47
1266.305;-34.38
1266.504;-33.22
1266.704;-32.21
1266.903;-31.35
1267.102;-30.58
1267.301;-29.94
1267.5;-29.39
1267.699;-28.92
1267.898;-28.54
1268.097;-28.23
1268.297;-28.0
1268.496;-27.82
1268.695;-27.71
1268.894;-27.67
1269.093;-27.68
1269.292;-27.77
1269.491;-27.92
1269.69;-28.12
1269.889;-28.38
1270.089;-28.69
1270.288;-29.07
1270.487;-29.48
1270.686;-29.91
1270.885;-30.35
1271.084;-30.73
1271.283;-31.04
1271.482;-31.19
1271.681;-31.16
1271.881;-30.93
1272.08;-30.51
1272.279;-29.98
1272.478;-29.35
1272.677;-28.69
1272.876;-28.04
1273.075;-27.41
1273.274;-26.84
1273.474;-26.29
1273.673;-25.75
1273.872;-25.4
1274.071;-25.05
1274.27;-24.75
1274.469;-24.51
1274.668;-24.34
1274.867;-24.22
1275.066;-24.18
1275.266;-24.19
1275.465;-24.27
1275.664;-24.43
1275.863;-24.65
1276.062;-24.98
1276.261;-25.37
1276.46;-25.88
1276.659;-26.5
1276.858;-27.23
1277.058;-28.14
1277.257;-29.44
1277.456;-30.52
1277.655;-32.01
1277.854;-33.75
1278.053;-35.46
1278.252;-36.5
1278.451;-36.06
1278.65;-34.41
1278.85;-32.45
1279.049;-30.63
1279.248;-29.03
1279.447;-27.68
1279.646;-26.5
1279.845;-25.33
1280.044;-24.61
1280.243;-23.87
1280.443;-23.22
1280.642;-22.67
1280.841;-22.21
1281.04;-21.81
1281.239;-21.5
1281.438;-21.25
1281.637;-21.07
1281.836;-20.96
1282.035;-20.9
1282.235;-20.92
1282.434;-20.99
1282.633;-21.13
1282.832;-21.34
1283.031;-21.59
1283.23;-21.93
1283.429;-22.3
1283.628;-22.73
1283.827;-23.22
1284.027;-23.72
1284.226;-24.23
1284.425;-24.69
1284.624;-25.07
1284.823;-25.31
1285.022;-25.34
1285.221;-25.17
1285.42;-24.79
1285.62;-24.26
1285.819;-23.65
1286.018;-22.99
1286.217;-22.35
1286.416;-21.7
1286.615;-21.14
1286.814;-20.6
1287.013;-20.12
1287.212;-19.71
1287.412;-19.35
1287.611;-19.06
1287.81;-18.83
1288.009;-18.65
1288.208;-18.55
1288.407;-18.49
1288.606;-18.5
1288.805;-18.56
1289.004;-18.68
1289.204;-18.87
1289.403;-19.1
1289.602;-19.4
1289.801;-19.74
1290.0;-20.14
1290.199;-20.58
1290.398;-21.04
1290.597;-21.53
1290.797;-21.97
1290.996;-22.34
1291.195;-22.62
1291.394;-22.73
1291.593;-22.68
1291.792;-22.43
1291.991;-22.06
1292.19;-21.58
1292.389;-21.03
1292.589;-20.47
1292.788;-19.91
1292.987;-19.4
1293.186;-18.92
1293.385;-18.5
1293.584;-18.13
1293.783;-17.81
1293.982;-17.57
1294.181;-17.36
1294.381;-17.23
1294.58;-17.16
1294.779;-17.14
1294.978;-17.21
1295.177;-17.32
1295.376;-17.52
1295.575;-17.77
1295.774;-18.1
1295.974;-18.53
1296.173;-19.03
1296.372;-19.65
1296.571;-20.36
1296.77;-21.21
1296.969;-22.21
1297.168;-23.37
1297.367;-24.75
1297.566;-26.28
1297.766;-27.98
1297.965;-29.86
1298.164;-30.34
1298.363;-29.77
1298.562;-28.27
1298.761;-26.58
1298.96;-24.72
1299.159;-23.59
1299.358;-22.39
1299.558;-21.37
1299.757;-20.49
1299.956;-19.75
1300.155;-19.13
1300.354;-18.6
1300.553;-18.18
1300.752;-17.83
1300.951;-17.56
1301.15;-17.39
1301.35;-17.26
1301.549;-17.24
1301.748;-17.25
1301.947;-17.33
1302.146;-17.51
1302.345;-17.73
1302.544;-18.06
1302.743;-18.43
1302.943;-18.89
1303.142;-19.46
1303.341;-20.1
1303.54;-20.88
1303.739;-21.73
1303.938;-22.72
1304.137;-23.84
1304.336;-25.03
1304.535;-26.28
1304.735;-27.34
1304.934;-28.01
1305.133;-28.0
1305.332;-27.33
1305.531;-26.31
1305.73;-25.14
1305.929;-24.02
1306.128;-22.99
1306.327;-22.08
1306.527;-21.3
1306.726;-20.6
1306.925;-20.03
1307.124;-19.52
1307.323;-19.1
1307.522;-18.77
1307.721;-18.49
1307.92;-18.29
1308.12;-18.14
1308.319;-18.04
1308.518;-18.01
1308.717;-18.0
1308.916;-18.05
1309.115;-18.13
1309.314;-18.24
1309.513;-18.39
1309.712;-18.54
1309.912;-18.73
1310.111;-18.92
1310.31;-19.12
1310.509;-19.31
1310.708;-19.49
1310.907;-19.67
1311.106;-19.82
1311.305;-19.95
1311.504;-20.06
1311.704;-20.14
1311.903;-20.21
1312.102;-20.25
1312.301;-20.31
1312.5;-20.35
1312.699;-20.41
1312.898;-20.48
1313.097;-20.57
1313.297;-20.71
1313.496;-20.88
1313.695;-21.1
1313.894;-21.36
1314.093;-21.7
1314.292;-22.1
1314.491;-22.58
1314.69;-23.15
1314.889;-23.81
1315.089;-24.6
1315.288;-25.52
1315.487;-26.62
1315.686;-27.9
1315.885;-29.7
1316.084;-31.07
1316.283;-32.75
1316.482;-34.02
1316.681;-34.06
1316.881;-32.86
1317.08;-31.16
1317.279;-29.44
1317.478;-27.95
1317.677;-26.63
1317.876;-25.34
1318.075;-24.56
1318.274;-23.77
1318.474;-23.09
1318.673;-22.52
1318.872;-22.05
1319.071;-21.65
1319.27;-21.34
1319.469;-21.1
1319.668;-20.94
1319.867;-20.84
1320.066;-20.79
1320.266;-20.83
1320.465;-20.91
1320.664;-21.05
1320.863;-21.27
1321.062;-21.52
1321.261;-21.85
1321.46;-22.22
1321.659;-22.65
1321.858;-23.14
1322.058;-23.68
1322.257;-24.26
1322.456;-24.86
1322.655;-25.47
1322.854;-26.06
1323.053;-26.58
1323.252;-27.0
1323.451;-27.26
1323.65;-27.35
1323.85;-27.26
1324.049;-27.02
1324.248;-26.7
1324.447;-26.29
1324.646;-25.87
1324.845;-25.45
1325.044;-25.06
1325.243;-24.72
1325.443;-24.42
1325.642;-24.21
1325.841;-24.01
1326.04;-23.88
1326.239;-23.81
1326.438;-23.79
1326.637;-23.84
1326.836;-23.93
1327.035;-24.09
1327.235;-24.29
1327.434;-24.55
1327.633;-24.87
1327.832;-25.23
1328.031;-25.67
1328.23;-26.13
1328.429;-26.66
1328.628;-27.23
1328.827;-27.81
1329.027;-28.55
1329.226;-29.05
1329.425;-29.63
1329.624;-30.12
1329.823;-30.54
1330.022;-30.8
1330.221;-30.92
1330.42;-30.89
1330.62;-30.73
1330.819;-30.49
1331.018;-30.17
1331.217;-29.85
1331.416;-29.53
1331.615;-29.23
1331.814;-28.98
1332.013;-28.76
1332.212;-28.6
1332.412;-28.49
1332.611;-28.44
1332.81;-28.45
1333.009;-28.5
1333.208;-28.62
1333.407;-28.79
1333.606;-29.02
1333.805;-29.32
1334.004;-29.67
1334.204;-30.1
1334.403;-30.57
1334.602;-31.12
1334.801;-31.73
1335.0;-32.41
1335.199;-33.17
1335.398;-33.96
1335.597;-34.82
1335.797;-35.68
1335.996;-36.54
1336.195;-37.32
1336.394;-37.93
1336.593;-38.31
1336.792;-38.39
1336.991;-38.22
1337.19;-37.86
1337.389;-37.38
1337.589;-36.87
1337.788;-36.35
1337.987;-35.89
1338.186;-35.46
1338.385;-35.11
1338.584;-34.82
1338.783;-34.59
1338.982;-34.44
1339.181;-34.33
1339.381;-34.31
1339.58;-34.33
1339.779;-34.41
1339.978;-34.56
1340.177;-34.75
1340.376;-35.01
1340.575;-35.31
1340.774;-35.65
1340.974;-36.04
1341.173;-36.46
1341.372;-36.93
1341.571;-37.42
1341.77;-37.93
1341.969;-38.54
1342.168;-38.95
1342.367;-39.41
1342.566;-39.81
1342.766;-40.16
1342.965;-40.4
1343.164;-40.55
1343.363;-40.6
1343.562;-40.57
1343.761;-40.49
1343.96;-40.37
1344.159;-40.24
1344.358;-40.09
1344.558;-39.97
1344.757;-39.86
1344.956;-39.78
1345.155;-39.76
1345.354;-39.76
1345.553;-39.82
1345.752;-39.93
1345.951;-40.1
1346.15;-40.33
1346.35;-40.6
1346.549;-40.96
1346.748;-41.35
1346.947;-41.82
1347.146;-42.36
1347.345;-42.95
1347.544;-43.69
1347.743;-44.51
1347.943;-45.43
1348.142;-46.44
1348.341;-47.58
1348.54;-49.09
1348.739;-50.21
1348.938;-51.72
1349.137;-53.27
1349.336;-54.61
1349.535;-55.41
1349.735;-55.32
1349.934;-54.56
1350.133;-53.48
1350.332;-52.45
1350.531;-51.41
1350.73;-50.47
1350.929;-49.67
1351.128;-48.99
1351.327;-48.49
1351.527;-48.1
1351.726;-47.88
1351.925;-47.69
1352.124;-47.57
1352.323;-47.55
1352.522;-47.64
1352.721;-47.76
1352.92;-47.95
1353.12;-48.33
1353.319;-48.64
1353.518;-49.1
1353.717;-49.67
1353.916;-50.24
1354.115;-50.97
1354.314;-51.88
1354.513;-52.9
1354.712;-54.17
1354.912;-55.61
1355.111;-57.23
1355.31;-59.54
1355.509;-60.9
1355.708;-62.55
1355.907;-63.31
1356.106;-62.48
1356.305;-60.78
1356.504;-59.07
1356.704;-57.5
1356.903;-56.07
1357.102;-55.52
1357.301;-54.68
1357.5;-53.91
1357.699;-53.33
1357.898;-52.77
1358.097;-52.31
1358.297;-52.07
1358.496;-51.95
1358.695;-51.83
1358.894;-51.77
1359.093;-51.8
1359.292;-51.8
1359.491;-52.17
1359.69;-52.57
1359.889;-52.94
1360.089;-53.29
1360.288;-53.64
1360.487;-54.02
1360.686;-54.67
1360.885;-55.59
1361.084;-56.62
1361.283;-57.72
1361.482;-59.39
1361.681;-60.33
1361.881;-61.88
1362.08;-63.7
1362.279;-65.9
1362.478;-67.44
1362.677;-68.03
1362.876;-66.95
1363.075;-65.25
1363.274;-63.52
1363.474;-62.09
1363.673;-60.85
1363.872;-59.9
1364.071;-59.18
1364.27;-58.57
1364.469;-58.21
1364.668;-58.18
1364.867;-57.91
1365.066;-57.48
1365.266;-57.37
1365.465;-57.14
1365.664;-57.09
1365.863;-57.09
1366.062;-57.13
1366.261;-57.22
1366.46;-57.46
1366.659;-57.87
1366.858;-58.42
1367.058;-58.98
1367.257;-59.62
1367.456;-60.43
1367.655;-61.28
1367.854;-62.38
1368.053;-63.52
1368.252;-64.67
1368.451;-66.05
1368.65;-67.46
1368.85;-68.95
1369.049;-70.5
1369.248;-71.15
1369.447;-70.84
1369.646;-69.78
1369.845;-69.0
1370.044;-68.0
1370.243;-66.79
1370.443;-65.7
1370.642;-64.76
1370.841;-64.41
1371.04;-63.96
1371.239;-63.49
1371.438;-63.01
1371.637;-62.59
1371.836;-62.28
1372.035;-62.24
1372.235;-62.31
1372.434;-62.28
1372.633;-62.35
1372.832;-62.44
1373.031;-62.55
1373.23;-62.81
1373.429;-63.2
1373.628;-63.56
1373.827;-63.99
1374.027;-64.51
1374.226;-65.01
1374.425;-65.68
1374.624;-66.42
1374.823;-67.17
1375.022;-67.97
1375.221;-68.72
1375.42;-69.43
1375.62;-70.01
1375.819;-70.5
1376.018;-70.93
1376.217;-71.25
1376.416;-71.42
1376.615;-71.47
1376.814;-71.12
1377.013;-70.95
1377.212;-70.54
1377.412;-70.25
1377.611;-69.88
1377.81;-69.41
1378.009;-69.32
1378.208;-69.33
1378.407;-69.11
1378.606;-69.27
1378.805;-69.46
1379.004;-69.52
1379.204;-69.4
1379.403;-69.52
1379.602;-69.66
1379.801;-69.9
1380.0;-70.08
1380.199;-70.45
1380.398;-70.95
1380.597;-71.71
1380.797;-72.87
1380.996;-72.95
1381.195;-73.27
1381.394;-73.22
1381.593;-72.7
1381.792;-72.88
1381.991;-72.83
1382.19;-72.86
1382.389;-73.27
1382.589;-73.26
1382.788;-73.6
1382.987;-73.37
1383.186;-73.01
1383.385;-72.26
1383.584;-71.77
1383.783;-71.63
1383.982;-71.34
1384.181;-71.36
1384.381;-71.25
1384.58;-71.09
1384.779;-70.94
1384.978;-71.56
1385.177;-71.78
1385.376;-71.9
1385.575;-71.73
1385.774;-72.11
1385.974;-71.97
1386.173;-72.29
1386.372;-72.83
1386.571;-73.06
1386.77;-73.02
1386.969;-73.88
1387.168;-73.82
1387.367;-74.58
1387.566;-74.77
1387.766;-75.76
1387.965;-76.85
1388.164;-76.89
1388.363;-77.53
1388.562;-77.46
1388.761;-77.02
1388.96;-77.51
1389.159;-77.14
1389.358;-76.72
1389.558;-76.9
1389.757;-77.55
1389.956;-77.1
1390.155;-77.21
1390.354;-76.74
1390.553;-76.48
1390.752;-77.32
1390.951;-76.39
1391.15;-76.65
1391.35;-76.2
1391.549;-76.99
1391.748;-76.99
1391.947;-77.27
1392.146;-77.65
1392.345;-78.19
1392.544;-77.92
1392.743;-78.07
1392.943;-80.08
1393.142;-79.27
1393.341;-79.23
1393.54;-79.43
1393.739;-79.36
1393.938;-80.08
1394.137;-80.4
1394.336;-80.84
1394.535;-80.04
1394.735;-81.94
1394.934;-82.51
1395.133;-81.43
1395.332;-81.48
1395.531;-81.7
1395.73;-79.33
1395.929;-80.24
1396.128;-80.4
1396.327;-80.84
1396.527;-79.78
1396.726;-78.39
1396.925;-78.07
1397.124;-78.81
1397.323;-77.6
1397.522;-77.87
1397.721;-77.47
1397.92;-77.22
1398.12;-76.86
1398.319;-76.97
1398.518;-77.02
1398.717;-76.69
1398.916;-77.04
1399.115;-76.76
1399.314;-76.5
1399.513;-77.08
1399.712;-77.23
1399.912;-77.32
1400.111;-78.08
1400.31;-77.7
1400.509;-77.95
1400.708;-78.54
1400.907;-77.93
1401.106;-78.2
1401.305;-77.93
1401.504;-78.65
1401.704;-78.35
1401.903;-77.93
1402.102;-78.94
1402.301;-79.37
1402.5;-78.54
1402.699;-79.12
1402.898;-78.82
1403.097;-78.43
1403.297;-79.24
1403.496;-79.34
1403.695;-79.0
1403.894;-78.3
1404.093;-79.21
1404.292;-80.05
1404.491;-80.76
1404.69;-81.34
1404.889;-81.44
1405.089;-81.18
1405.288;-82.52
1405.487;-81.23
1405.686;-82.8
1405.885;-80.76
1406.084;-80.54
1406.283;-79.93
1406.482;-81.23
1406.681;-81.3
1406.881;-79.45
1407.08;-79.8
1407.279;-81.24
1407.478;-80.77
1407.677;-80.86
1407.876;-81.35
1408.075;-81.67
1408.274;-82.33
1408.474;-81.0
1408.673;-82.53
1408.872;-80.59
1409.071;-80.72
1409.27;-78.58
1409.469;-80.5
1409.668;-81.05
1409.867;-80.68
1410.066;-81.3
1410.266;-81.05
1410.465;-81.1
1410.664;-80.3
1410.863;-79.94
1411.062;-80.18
1411.261;-80.9
1411.46;-81.61
1411.659;-79.76
1411.858;-79.19
1412.058;-80.59
1412.257;-79.52
1412.456;-80.68
1412.655;-80.95
1412.854;-80.38
1413.053;-82.53
1413.252;-80.77
1413.451;-80.59
1413.65;-79.08
1413.85;-81.41
1414.049;-79.53
1414.248;-81.57
1414.447;-80.87
1414.646;-81.68
1414.845;-82.54
1415.044;-80.73
1415.243;-79.77
1415.443;-80.35
1415.642;-82.4
1415.841;-80.19
1416.04;-78.53
1416.239;-80.07
1416.438;-80.03
1416.637;-80.19
1416.836;-80.35
1417.035;-80.91
1417.235;-79.99
1417.434;-81.51
1417.633;-80.69
1417.832;-80.96
1418.031;-81.06
1418.23;-83.61
1418.429;-82.54
1418.628;-81.79
1418.827;-80.91
1419.027;-80.39
1419.226;-80.39
1419.425;-79.7
1419.624;-80.64
1419.823;-81.36
1420.022;-81.85
1420.221;-81.06
1420.42;-81.36
1420.62;-80.35
1420.819;-80.31
1421.018;-83.12
1421.217;-79.17
1421.416;-78.84
1421.615;-79.27
1421.814;-80.48
1422.013;-79.93
1422.212;-79.31
1422.412;-81.37
1422.611;-81.07
1422.81;-79.89
1423.009;-80.44
1423.208;-79.75
1423.407;-80.36
1423.606;-79.96
1423.805;-79.96
1424.004;-81.37
1424.204;-80.36
1424.403;-79.24
1424.602;-79.54
1424.801;-78.13
1425.0;-79.82
