Wavelength (nm);Intensity (dBm)
1131.0;1131.0
1200.0;-61.87
1200.199;-61.83
1200.398;-61.82
1200.597;-61.8
1200.797;-61.79
1200.996;-61.83
1201.195;-61.86
1201.394;-61.79
1201.593;-61.75
1201.792;-61.79
1201.991;-61.75
1202.19;-61.72
1202.389;-61.73
1202.589;-61.68
1202.788;-61.67
1202.987;-61.65
1203.186;-61.58
1203.385;-61.51
1203.584;-61.46
1203.783;-61.45
1203.982;-61.35
1204.181;-61.25
1204.381;-61.18
1204.58;-61.17
1204.779;-61.1
1204.978;-61.01
1205.177;-60.98
1205.376;-60.94
1205.575;-60.95
1205.774;-60.89
1205.974;-60.87
1206.173;-60.89
1206.372;-60.92
1206.571;-60.87
1206.77;-60.87
1206.969;-60.92
1207.168;-60.92
1207.367;-60.93
1207.566;-60.93
1207.766;-60.95
1207.965;-60.99
1208.164;-61.0
1208.363;-60.97
1208.562;-60.94
1208.761;-60.99
1208.96;-60.98
1209.159;-60.91
1209.358;-60.89
1209.558;-60.87
1209.757;-60.84
1209.956;-60.75
1210.155;-60.66
1210.354;-60.56
1210.553;-60.52
1210.752;-60.42
1210.951;-60.31
1211.15;-60.18
1211.35;-60.13
1211.549;-60.03
1211.748;-59.93
1211.947;-59.82
1212.146;-59.75
1212.345;-59.72
1212.544;-59.64
1212.743;-59.6
1212.943;-59.56
1213.142;-59.54
1213.341;-59.49
1213.54;-59.46
1213.739;-59.47
1213.938;-59.46
1214.137;-59.46
1214.336;-59.44
1214.535;-59.46
1214.735;-59.51
1214.934;-59.51
1215.133;-59.5
1215.332;-59.55
1215.531;-59.57
1215.73;-59.59
1215.929;-59.56
1216.128;-59.56
1216.327;-59.57
1216.527;-59.54
1216.726;-59.49
1216.925;-59.42
1217.124;-59.36
1217.323;-59.28
1217.522;-59.17
1217.721;-59.03
1217.92;-58.92
1218.12;-58.84
1218.319;-58.7
1218.518;-58.57
1218.717;-58.49
1218.916;-58.4
1219.115;-58.29
1219.314;-58.21
1219.513;-58.14
1219.712;-58.11
1219.912;-58.05
1220.111;-57.98
1220.31;-57.94
1220.509;-57.92
1220.708;-57.9
1220.907;-57.84
1221.106;-57.81
1221.305;-57.81
1221.504;-57.77
1221.704;-57.76
1221.903;-57.75
1222.102;-57.74
1222.301;-57.74
1222.5;-57.7
1222.699;-57.7
1222.898;-57.7
1223.097;-57.69
1223.297;-57.63
1223.496;-57.58
1223.695;-57.57
1223.894;-57.52
1224.093;-57.42
1224.292;-57.35
1224.491;-57.26
1224.69;-57.2
1224.889;-57.1
1225.089;-57.02
1225.288;-56.95
1225.487;-56.89
1225.686;-56.84
1225.885;-56.8
1226.084;-56.8
1226.283;-56.81
1226.482;-56.79
1226.681;-56.83
1226.881;-56.88
1227.08;-56.9
1227.279;-56.95
1227.478;-56.98
1227.677;-57.04
1227.876;-57.07
1228.075;-57.07
1228.274;-57.08
1228.474;-57.08
1228.673;-57.08
1228.872;-57.01
1229.071;-56.93
1229.27;-56.87
1229.469;-56.75
1229.668;-56.61
1229.867;-56.42
1230.066;-56.25
1230.266;-56.05
1230.465;-55.81
1230.664;-55.53
1230.863;-55.35
1231.062;-55.13
1231.261;-54.9
1231.46;-54.71
1231.659;-54.54
1231.858;-54.37
1232.058;-54.24
1232.257;-54.11
1232.456;-54.05
1232.655;-53.98
1232.854;-53.92
1233.053;-53.94
1233.252;-53.94
1233.451;-53.95
1233.65;-54.01
1233.85;-54.06
1234.049;-54.15
1234.248;-54.21
1234.447;-54.3
1234.646;-54.4
1234.845;-54.49
1235.044;-54.56
1235.243;-54.63
1235.443;-54.69
1235.642;-54.71
1235.841;-54.7
1236.04;-54.69
1236.239;-54.61
1236.438;-54.5
1236.637;-54.36
1236.836;-54.19
1237.035;-54.02
1237.235;-53.8
1237.434;-53.59
1237.633;-53.39
1237.832;-53.19
1238.031;-52.99
1238.23;-52.81
1238.429;-52.66
1238.628;-52.53
1238.827;-52.4
1239.027;-52.31
1239.226;-52.22
1239.425;-52.16
1239.624;-52.1
1239.823;-52.06
1240.022;-52.04
1240.221;-52.0
1240.42;-51.96
1240.62;-51.92
1240.819;-51.88
1241.018;-51.82
1241.217;-51.74
1241.416;-51.67
1241.615;-51.56
1241.814;-51.45
1242.013;-51.33
1242.212;-51.2
1242.412;-51.07
1242.611;-50.89
1242.81;-50.74
1243.009;-50.59
1243.208;-50.44
1243.407;-50.3
1243.606;-50.15
1243.805;-50.04
1244.004;-49.93
1244.204;-49.84
1244.403;-49.8
1244.602;-49.75
1244.801;-49.73
1245.0;-49.73
1245.199;-49.76
1245.398;-49.8
1245.597;-49.81
1245.797;-49.85
1245.996;-49.86
1246.195;-49.84
1246.394;-49.81
1246.593;-49.7
1246.792;-49.57
1246.991;-49.35
1247.19;-49.1
1247.389;-48.81
1247.589;-48.44
1247.788;-48.07
1247.987;-47.66
1248.186;-47.25
1248.385;-46.86
1248.584;-46.44
1248.783;-46.07
1248.982;-45.66
1249.181;-45.41
1249.381;-45.12
1249.58;-44.86
1249.779;-44.66
1249.978;-44.49
1250.177;-44.38
1250.376;-44.3
1250.575;-44.27
1250.774;-44.31
1250.974;-44.39
1251.173;-44.52
1251.372;-44.69
1251.571;-44.92
1251.77;-45.19
1251.969;-45.46
1252.168;-45.77
1252.367;-46.04
1252.566;-46.3
1252.766;-46.48
1252.965;-46.55
1253.164;-46.48
1253.363;-46.23
1253.562;-45.87
1253.761;-45.37
1253.96;-44.78
1254.159;-44.15
1254.358;-43.47
1254.558;-42.82
1254.757;-42.18
1254.956;-41.57
1255.155;-41.02
1255.354;-40.49
1255.553;-40.04
1255.752;-39.63
1255.951;-39.26
1256.15;-38.97
1256.35;-38.71
1256.549;-38.51
1256.748;-38.36
1256.947;-38.24
1257.146;-38.19
1257.345;-38.16
1257.544;-38.2
1257.743;-38.25
1257.943;-38.33
1258.142;-38.45
1258.341;-38.56
1258.54;-38.69
1258.739;-38.78
1258.938;-38.84
1259.137;-38.86
1259.336;-38.79
1259.535;-38.66
1259.735;-38.41
1259.934;-38.09
1260.133;-37.72
1260.332;-37.26
1260.531;-36.8
1260.73;-36.29
1260.929;-35.71
1261.128;-35.29
1261.327;-34.83
1261.527;-34.4
1261.726;-33.99
1261.925;-33.64
1262.124;-33.3
1262.323;-33.03
1262.522;-32.81
1262.721;-32.63
1262.92;-32.51
1263.12;-32.42
1263.319;-32.39
1263.518;-32.42
1263.717;-32.49
1263.916;-32.63
1264.115;-32.79
1264.314;-33.02
1264.513;-33.32
1264.712;-33.64
1264.912;-34.01
1265.111;-34.38
1265.31;-34.76
1265.509;-35.12
1265.708;-35.38
1265.907;-35.54
1266.106;-35.5
1266.305;-35.29
1266.504;-34.89
1266.704;-34.35
1266.903;-33.72
1267.102;-33.01
1267.301;-32.3
1267.5;-31.61
1267.699;-30.94
1267.898;-30.33
1268.097;-29.76
1268.297;-29.24
1268.496;-28.78
1268.695;-28.35
1268.894;-27.99
1269.093;-27.66
1269.292;-27.39
1269.491;-27.16
1269.69;-26.97
1269.889;-26.83
1270.089;-26.72
1270.288;-26.66
1270.487;-26.63
1270.686;-26.63
1270.885;-26.67
1271.084;-26.72
1271.283;-26.81
1271.482;-26.9
1271.681;-27.01
1271.881;-27.14
1272.08;-27.25
1272.279;-27.37
1272.478;-27.45
1272.677;-27.52
1272.876;-27.56
1273.075;-27.55
1273.274;-27.53
1273.474;-27.44
1273.673;-27.33
1273.872;-27.19
1274.071;-27.03
1274.27;-26.87
1274.469;-26.69
1274.668;-26.53
1274.867;-26.36
1275.066;-26.22
1275.266;-26.08
1275.465;-26.0
1275.664;-25.94
1275.863;-25.9
1276.062;-25.9
1276.261;-25.92
1276.46;-25.98
1276.659;-26.07
1276.858;-26.18
1277.058;-26.32
1277.257;-26.47
1277.456;-26.63
1277.655;-26.81
1277.854;-26.96
1278.053;-27.09
1278.252;-27.17
1278.451;-27.2
1278.65;-27.16
1278.85;-27.04
1279.049;-26.86
1279.248;-26.6
1279.447;-26.3
1279.646;-25.96
1279.845;-25.59
1280.044;-25.22
1280.243;-24.85
1280.443;-24.51
1280.642;-24.19
1280.841;-23.89
1281.04;-23.65
1281.239;-23.42
1281.438;-23.27
1281.637;-23.14
1281.836;-23.07
1282.035;-23.07
1282.235;-23.11
1282.434;-23.23
1282.633;-23.41
1282.832;-23.67
1283.031;-24.01
1283.23;-24.44
1283.429;-24.97
1283.628;-25.61
1283.827;-26.38
1284.027;-27.3
1284.226;-28.6
1284.425;-29.64
1284.624;-31.02
1284.823;-32.43
1285.022;-33.44
1285.221;-33.53
1285.42;-32.55
1285.62;-31.0
1285.819;-29.37
1286.018;-27.83
1286.217;-26.47
1286.416;-25.09
1286.615;-24.25
1286.814;-23.35
1287.013;-22.56
1287.212;-21.9
1287.412;-21.32
1287.611;-20.84
1287.81;-20.43
1288.009;-20.1
1288.208;-19.86
1288.407;-19.67
1288.606;-19.57
1288.805;-19.53
1289.004;-19.56
1289.204;-19.67
1289.403;-19.84
1289.602;-20.11
1289.801;-20.45
1290.0;-20.88
1290.199;-21.42
1290.398;-22.07
1290.597;-22.87
1290.797;-23.81
1290.996;-24.92
1291.195;-26.26
1291.394;-27.82
1291.593;-30.01
1291.792;-31.43
1291.991;-32.48
1292.19;-31.97
1292.389;-30.3
1292.589;-28.34
1292.788;-26.54
1292.987;-24.77
1293.186;-23.68
1293.385;-22.57
1293.584;-21.59
1293.783;-20.78
1293.982;-20.07
1294.181;-19.49
1294.381;-18.98
1294.58;-18.55
1294.779;-18.23
1294.978;-17.95
1295.177;-17.76
1295.376;-17.63
1295.575;-17.55
1295.774;-17.55
1295.974;-17.59
1296.173;-17.72
1296.372;-17.89
1296.571;-18.12
1296.77;-18.43
1296.969;-18.79
1297.168;-19.24
1297.367;-19.74
1297.566;-20.31
1297.766;-20.98
1297.965;-21.71
1298.164;-22.54
1298.363;-23.4
1298.562;-24.32
1298.761;-25.22
1298.96;-26.03
1299.159;-26.64
1299.358;-26.9
1299.558;-26.79
1299.757;-26.35
1299.956;-25.71
1300.155;-24.98
1300.354;-24.24
1300.553;-23.53
1300.752;-22.88
1300.951;-22.31
1301.15;-21.83
1301.35;-21.42
1301.549;-21.09
1301.748;-20.8
1301.947;-20.59
1302.146;-20.44
1302.345;-20.32
1302.544;-20.28
1302.743;-20.24
1302.943;-20.25
1303.142;-20.27
1303.341;-20.3
1303.54;-20.35
1303.739;-20.37
1303.938;-20.37
1304.137;-20.33
1304.336;-20.25
1304.535;-20.14
1304.735;-19.96
1304.934;-19.75
1305.133;-19.49
1305.332;-19.2
1305.531;-18.92
1305.73;-18.61
1305.929;-18.32
1306.128;-18.02
1306.327;-17.76
1306.527;-17.52
1306.726;-17.3
1306.925;-17.14
1307.124;-17.0
1307.323;-16.9
1307.522;-16.85
1307.721;-16.84
1307.92;-16.89
1308.12;-16.97
1308.319;-17.13
1308.518;-17.33
1308.717;-17.58
1308.916;-17.91
1309.115;-18.3
1309.314;-18.76
1309.513;-19.3
1309.712;-19.91
1309.912;-20.63
1310.111;-21.43
1310.31;-22.36
1310.509;-23.37
1310.708;-24.53
1310.907;-25.73
1311.106;-26.94
1311.305;-27.93
1311.504;-28.51
1311.704;-28.29
1311.903;-27.55
1312.102;-26.53
1312.301;-25.25
1312.5;-24.4
1312.699;-23.45
1312.898;-22.62
1313.097;-21.91
1313.297;-21.3
1313.496;-20.82
1313.695;-20.4
1313.894;-20.08
1314.093;-19.85
1314.292;-19.68
1314.491;-19.61
1314.69;-19.59
1314.889;-19.66
1315.089;-19.78
1315.288;-19.99
1315.487;-20.29
1315.686;-20.64
1315.885;-21.1
1316.084;-21.63
1316.283;-22.27
1316.482;-23.02
1316.681;-23.88
1316.881;-24.89
1317.08;-26.02
1317.279;-27.3
1317.478;-29.0
1317.677;-30.11
1317.876;-31.17
1318.075;-31.58
1318.274;-31.12
1318.474;-30.04
1318.673;-28.78
1318.872;-27.5
1319.071;-26.37
1319.27;-25.21
1319.469;-24.52
1319.668;-23.79
1319.867;-23.16
1320.066;-22.65
1320.266;-22.22
1320.465;-21.88
1320.664;-21.61
1320.863;-21.42
1321.062;-21.3
1321.261;-21.24
1321.46;-21.25
1321.659;-21.3
1321.858;-21.42
1322.058;-21.6
1322.257;-21.82
1322.456;-22.12
1322.655;-22.44
1322.854;-22.83
1323.053;-23.25
1323.252;-23.72
1323.451;-24.22
1323.65;-24.74
1323.85;-25.28
1324.049;-25.78
1324.248;-26.25
1324.447;-26.66
1324.646;-26.95
1324.845;-27.16
1325.044;-27.22
1325.243;-27.17
1325.443;-27.02
1325.642;-26.81
1325.841;-26.57
1326.04;-26.28
1326.239;-26.01
1326.438;-25.75
1326.637;-25.51
1326.836;-25.33
1327.035;-25.16
1327.235;-25.05
1327.434;-24.96
1327.633;-24.92
1327.832;-24.93
1328.031;-24.96
1328.23;-25.05
1328.429;-25.15
1328.628;-25.29
1328.827;-25.46
1329.027;-25.65
1329.226;-25.88
1329.425;-26.1
1329.624;-26.35
1329.823;-26.59
1330.022;-26.83
1330.221;-27.08
1330.42;-27.3
1330.62;-27.53
1330.819;-27.72
1331.018;-27.9
1331.217;-28.06
1331.416;-28.19
1331.615;-28.31
1331.814;-28.41
1332.013;-28.54
1332.212;-28.61
1332.412;-28.72
1332.611;-28.84
1332.81;-28.97
1333.009;-29.14
1333.208;-29.32
1333.407;-29.55
1333.606;-29.81
1333.805;-30.13
1334.004;-30.49
1334.204;-30.9
1334.403;-31.39
1334.602;-31.93
1334.801;-32.56
1335.0;-33.26
1335.199;-34.07
1335.398;-34.99
1335.597;-36.03
1335.797;-37.22
1335.996;-38.84
1336.195;-40.11
1336.394;-41.74
1336.593;-43.42
1336.792;-44.7
1336.991;-45.04
1337.19;-44.32
1337.389;-43.0
1337.589;-41.6
1337.788;-40.3
1337.987;-39.18
1338.186;-38.23
1338.385;-37.42
1338.584;-36.77
1338.783;-36.13
1338.982;-35.79
1339.181;-35.45
1339.381;-35.2
1339.58;-35.03
1339.779;-34.93
1339.978;-34.91
1340.177;-34.95
1340.376;-35.07
1340.575;-35.25
1340.774;-35.48
1340.974;-35.79
1341.173;-36.15
1341.372;-36.59
1341.571;-37.09
1341.77;-37.66
1341.969;-38.32
1342.168;-39.2
1342.367;-39.87
1342.566;-40.73
1342.766;-41.71
1342.965;-42.71
1343.164;-43.75
1343.363;-44.75
1343.562;-45.57
1343.761;-46.15
1343.96;-46.32
1344.159;-46.16
1344.358;-45.7
1344.558;-45.11
1344.757;-44.47
1344.956;-43.83
1345.155;-43.26
1345.354;-42.75
1345.553;-42.33
1345.752;-42.0
1345.951;-41.73
1346.15;-41.55
1346.35;-41.42
1346.549;-41.37
1346.748;-41.38
1346.947;-41.44
1347.146;-41.57
1347.345;-41.73
1347.544;-42.01
1347.743;-42.34
1347.943;-42.72
1348.142;-43.13
1348.341;-43.58
1348.54;-44.05
1348.739;-44.55
1348.938;-45.1
1349.137;-45.69
1349.336;-46.25
1349.535;-46.83
1349.735;-47.34
1349.934;-47.82
1350.133;-48.23
1350.332;-48.63
1350.531;-48.73
1350.73;-48.72
1350.929;-48.6
1351.128;-48.36
1351.327;-48.12
1351.527;-47.87
1351.726;-47.68
1351.925;-47.46
1352.124;-47.24
1352.323;-47.11
1352.522;-47.01
1352.721;-46.93
1352.92;-46.9
1353.12;-47.02
1353.319;-47.06
1353.518;-47.2
1353.717;-47.42
1353.916;-47.61
1354.115;-47.91
1354.314;-48.35
1354.513;-48.82
1354.712;-49.48
1354.912;-50.18
1355.111;-50.9
1355.31;-51.66
1355.509;-52.37
1355.708;-53.36
1355.907;-54.49
1356.106;-55.75
1356.305;-57.04
1356.504;-58.85
1356.704;-59.42
1356.903;-60.35
1357.102;-60.98
1357.301;-60.73
1357.5;-59.89
1357.699;-58.89
1357.898;-57.8
1358.097;-56.75
1358.297;-55.83
1358.496;-55.34
1358.695;-54.72
1358.894;-54.2
1359.093;-53.78
1359.292;-53.4
1359.491;-53.39
1359.69;-53.41
1359.889;-53.34
1360.089;-53.23
1360.288;-53.18
1360.487;-53.14
1360.686;-53.35
1360.885;-53.78
1361.084;-54.26
1361.283;-54.7
1361.482;-55.21
1361.681;-55.78
1361.881;-56.38
1362.08;-57.19
1362.279;-58.22
1362.478;-59.32
1362.677;-60.22
1362.876;-61.07
1363.075;-62.06
1363.274;-62.58
1363.474;-63.41
1363.673;-63.92
1363.872;-64.06
1364.071;-63.88
1364.27;-63.36
1364.469;-62.89
1364.668;-62.54
1364.867;-61.81
1365.066;-60.93
1365.266;-60.38
1365.465;-59.81
1365.664;-59.32
1365.863;-58.92
1366.062;-58.55
1366.261;-58.28
1366.46;-58.13
1366.659;-58.13
1366.858;-58.31
1367.058;-58.4
1367.257;-58.58
1367.456;-58.94
1367.655;-59.29
1367.854;-59.79
1368.053;-60.25
1368.252;-60.65
1368.451;-61.37
1368.65;-62.0
1368.85;-62.8
1369.049;-63.58
1369.248;-64.4
1369.447;-65.19
1369.646;-66.33
1369.845;-67.69
1370.044;-69.11
1370.243;-70.41
1370.443;-71.41
1370.642;-71.75
1370.841;-71.74
1371.04;-71.04
1371.239;-69.87
1371.438;-68.78
1371.637;-67.74
1371.836;-66.75
1372.035;-66.21
1372.235;-65.63
1372.434;-65.07
1372.633;-64.59
1372.832;-64.15
1373.031;-63.81
1373.23;-63.61
1373.429;-63.55
1373.628;-63.45
1373.827;-63.35
1374.027;-63.36
1374.226;-63.42
1374.425;-63.58
1374.624;-63.76
1374.823;-64.07
1375.022;-64.36
1375.221;-64.66
1375.42;-65.05
1375.62;-65.34
1375.819;-65.77
1376.018;-66.27
1376.217;-66.81
1376.416;-67.39
1376.615;-68.06
1376.814;-68.62
1377.013;-69.45
1377.212;-70.3
1377.412;-70.87
1377.611;-71.84
1377.81;-72.35
1378.009;-73.02
1378.208;-73.88
1378.407;-74.03
1378.606;-74.95
1378.805;-75.42
1379.004;-75.26
1379.204;-75.22
1379.403;-74.58
1379.602;-74.32
1379.801;-74.08
1380.0;-73.78
1380.199;-73.19
1380.398;-72.92
1380.597;-72.78
1380.797;-72.91
1380.996;-72.42
1381.195;-72.02
1381.394;-71.42
1381.593;-70.89
1381.792;-70.68
1381.991;-70.31
1382.19;-70.14
1382.389;-70.14
1382.589;-70.41
1382.788;-70.8
1382.987;-71.01
1383.186;-70.65
1383.385;-70.22
1383.584;-69.99
1383.783;-69.97
1383.982;-70.11
1384.181;-70.29
1384.381;-70.33
1384.58;-70.49
1384.779;-70.65
1384.978;-71.2
1385.177;-71.69
1385.376;-71.78
1385.575;-72.08
1385.774;-72.54
1385.974;-72.69
1386.173;-73.38
1386.372;-73.75
1386.571;-74.28
1386.77;-74.94
1386.969;-75.85
1387.168;-75.82
1387.367;-77.17
1387.566;-77.82
1387.766;-78.25
1387.965;-79.49
1388.164;-79.49
1388.363;-80.39
1388.562;-79.88
1388.761;-79.04
1388.96;-80.27
1389.159;-78.71
1389.358;-78.98
1389.558;-77.51
1389.757;-76.85
1389.956;-77.34
1390.155;-76.2
1390.354;-76.18
1390.553;-75.94
1390.752;-75.65
1390.951;-75.4
1391.15;-75.13
1391.35;-75.0
1391.549;-75.01
1391.748;-75.23
1391.947;-74.77
1392.146;-75.08
1392.345;-75.28
1392.544;-75.13
1392.743;-75.36
1392.943;-75.74
1393.142;-76.21
1393.341;-75.74
1393.54;-75.95
1393.739;-75.68
1393.938;-76.73
1394.137;-77.13
1394.336;-77.65
1394.535;-78.5
1394.735;-79.5
1394.934;-77.87
1395.133;-78.96
1395.332;-81.48
1395.531;-79.92
1395.73;-81.28
1395.929;-80.93
1396.128;-80.88
1396.327;-80.57
1396.527;-81.54
1396.726;-81.03
1396.925;-80.08
1397.124;-80.0
1397.323;-80.32
1397.522;-79.92
1397.721;-79.2
1397.92;-79.02
1398.12;-79.5
1398.319;-78.42
1398.518;-79.9
1398.717;-79.79
1398.916;-79.09
1399.115;-78.88
1399.314;-79.15
1399.513;-80.17
1399.712;-78.2
1399.912;-79.47
1400.111;-78.03
1400.31;-78.48
1400.509;-79.21
1400.708;-79.18
1400.907;-78.54
1401.106;-78.94
1401.305;-79.12
1401.504;-80.41
1401.704;-79.75
1401.903;-79.24
1402.102;-79.21
1402.301;-80.01
1402.5;-82.13
1402.699;-80.49
1402.898;-80.58
1403.097;-79.72
1403.297;-80.85
1403.496;-82.07
1403.695;-83.18
1403.894;-81.77
1404.093;-80.62
1404.292;-80.67
1404.491;-81.44
1404.69;-81.23
1404.889;-81.44
1405.089;-82.52
1405.288;-82.38
1405.487;-81.83
1405.686;-82.07
1405.885;-80.94
1406.084;-82.25
1406.283;-79.12
1406.482;-79.79
1406.681;-81.9
1406.881;-81.24
1407.08;-80.5
1407.279;-79.94
1407.478;-81.78
1407.677;-81.56
1407.876;-80.38
1408.075;-80.55
1408.274;-80.68
1408.474;-80.95
1408.673;-80.68
1408.872;-80.9
1409.071;-81.84
1409.27;-81.19
1409.469;-81.56
1409.668;-81.05
1409.867;-81.24
1410.066;-80.42
1410.266;-80.77
1410.465;-81.9
1410.664;-82.81
1410.863;-81.72
1411.062;-81.56
1411.261;-81.05
1411.46;-81.05
1411.659;-82.53
1411.858;-81.3
1412.058;-79.25
1412.257;-81.14
1412.456;-81.19
1412.655;-81.0
1412.854;-80.26
1413.053;-80.59
1413.252;-80.86
1413.451;-80.77
1413.65;-80.07
1413.85;-80.35
1414.049;-81.06
1414.248;-80.23
1414.447;-80.96
1414.646;-81.62
1414.845;-80.39
1415.044;-79.39
1415.243;-79.99
1415.443;-81.01
1415.642;-80.91
1415.841;-79.92
1416.04;-80.87
1416.239;-81.25
1416.438;-80.27
1416.637;-80.35
1416.836;-80.43
1417.035;-82.4
1417.235;-81.68
1417.434;-79.02
1417.633;-80.73
1417.832;-81.06
1418.031;-81.25
1418.23;-80.87
1418.429;-82.75
1418.628;-81.25
1418.827;-79.88
1419.027;-80.31
1419.226;-80.19
1419.425;-81.91
1419.624;-81.57
1419.823;-81.06
1420.022;-82.47
1420.221;-81.25
1420.42;-79.2
1420.62;-80.35
1420.819;-81.68
1421.018;-81.15
1421.217;-79.02
1421.416;-81.91
1421.615;-80.74
1421.814;-79.78
1422.013;-79.03
1422.212;-81.86
1422.412;-78.51
1422.611;-79.78
1422.81;-79.4
1423.009;-81.07
1423.208;-78.43
1423.407;-80.79
1423.606;-79.85
1423.805;-80.08
1424.004;-80.12
1424.204;-81.07
1424.403;-79.89
1424.602;-81.26
1424.801;-81.42
1425.0;-81.02
