Wavelength (nm);Intensity (dBm)
1131.0;1131.0
1200.0;-62.17
1200.199;-62.14
1200.398;-62.04
1200.597;-61.99
1200.797;-61.92
1200.996;-61.86
1201.195;-61.84
1201.394;-61.74
1201.593;-61.65
1201.792;-61.61
1201.991;-61.57
1202.19;-61.46
1202.389;-61.44
1202.589;-61.44
1202.788;-61.38
1202.987;-61.35
1203.186;-61.28
1203.385;-61.23
1203.584;-61.24
1203.783;-61.25
1203.982;-61.23
1204.181;-61.17
1204.381;-61.19
1204.58;-61.24
1204.779;-61.19
1204.978;-61.18
1205.177;-61.2
1205.376;-61.22
1205.575;-61.28
1205.774;-61.26
1205.974;-61.24
1206.173;-61.29
1206.372;-61.29
1206.571;-61.25
1206.77;-61.19
1206.969;-61.2
1207.168;-61.14
1207.367;-61.06
1207.566;-61.02
1207.766;-60.95
1207.965;-60.88
1208.164;-60.78
1208.363;-60.67
1208.562;-60.57
1208.761;-60.5
1208.96;-60.45
1209.159;-60.34
1209.358;-60.25
1209.558;-60.22
1209.757;-60.15
1209.956;-60.07
1210.155;-60.04
1210.354;-59.99
1210.553;-59.96
1210.752;-59.97
1210.951;-59.92
1211.15;-59.91
1211.35;-59.94
1211.549;-59.98
1211.748;-59.96
1211.947;-59.97
1212.146;-60.05
1212.345;-60.08
1212.544;-60.1
1212.743;-60.12
1212.943;-60.17
1213.142;-60.23
1213.341;-60.22
1213.54;-60.18
1213.739;-60.18
1213.938;-60.17
1214.137;-60.14
1214.336;-60.04
1214.535;-59.99
1214.735;-59.93
1214.934;-59.83
1215.133;-59.72
1215.332;-59.63
1215.531;-59.58
1215.73;-59.48
1215.929;-59.35
1216.128;-59.25
1216.327;-59.16
1216.527;-59.09
1216.726;-58.96
1216.925;-58.85
1217.124;-58.79
1217.323;-58.71
1217.522;-58.65
1217.721;-58.57
1217.92;-58.52
1218.12;-58.53
1218.319;-58.48
1218.518;-58.45
1218.717;-58.47
1218.916;-58.5
1219.115;-58.52
1219.314;-58.53
1219.513;-58.61
1219.712;-58.65
1219.912;-58.69
1220.111;-58.7
1220.31;-58.7
1220.509;-58.75
1220.708;-58.74
1220.907;-58.7
1221.106;-58.69
1221.305;-58.65
1221.504;-58.59
1221.704;-58.51
1221.903;-58.44
1222.102;-58.37
1222.301;-58.28
1222.5;-58.19
1222.699;-58.08
1222.898;-58.0
1223.097;-57.91
1223.297;-57.77
1223.496;-57.65
1223.695;-57.55
1223.894;-57.43
1224.093;-57.29
1224.292;-57.16
1224.491;-57.05
1224.69;-56.93
1224.889;-56.79
1225.089;-56.68
1225.288;-56.58
1225.487;-56.5
1225.686;-56.39
1225.885;-56.29
1226.084;-56.24
1226.283;-56.17
1226.482;-56.08
1226.681;-56.01
1226.881;-55.96
1227.08;-55.89
1227.279;-55.81
1227.478;-55.71
1227.677;-55.66
1227.876;-55.6
1228.075;-55.51
1228.274;-55.45
1228.474;-55.41
1228.673;-55.37
1228.872;-55.33
1229.071;-55.29
1229.27;-55.28
1229.469;-55.28
1229.668;-55.26
1229.867;-55.29
1230.066;-55.32
1230.266;-55.34
1230.465;-55.37
1230.664;-55.42
1230.863;-55.51
1231.062;-55.56
1231.261;-55.61
1231.46;-55.71
1231.659;-55.77
1231.858;-55.83
1232.058;-55.88
1232.257;-55.91
1232.456;-55.97
1232.655;-55.95
1232.854;-55.92
1233.053;-55.89
1233.252;-55.81
1233.451;-55.71
1233.65;-55.57
1233.85;-55.44
1234.049;-55.26
1234.248;-55.06
1234.447;-54.86
1234.646;-54.67
1234.845;-54.49
1235.044;-54.28
1235.243;-54.1
1235.443;-53.94
1235.642;-53.79
1235.841;-53.64
1236.04;-53.52
1236.239;-53.4
1236.438;-53.3
1236.637;-53.21
1236.836;-53.16
1237.035;-53.1
1237.235;-53.03
1237.434;-52.99
1237.633;-52.96
1237.832;-52.95
1238.031;-52.91
1238.23;-52.9
1238.429;-52.9
1238.628;-52.89
1238.827;-52.88
1239.027;-52.85
1239.226;-52.84
1239.425;-52.81
1239.624;-52.75
1239.823;-52.7
1240.022;-52.62
1240.221;-52.53
1240.42;-52.42
1240.62;-52.31
1240.819;-52.2
1241.018;-52.04
1241.217;-51.9
1241.416;-51.77
1241.615;-51.63
1241.814;-51.51
1242.013;-51.38
1242.212;-51.28
1242.412;-51.17
1242.611;-51.05
1242.81;-50.97
1243.009;-50.86
1243.208;-50.76
1243.407;-50.65
1243.606;-50.52
1243.805;-50.4
1244.004;-50.24
1244.204;-50.09
1244.403;-49.93
1244.602;-49.75
1244.801;-49.58
1245.0;-49.38
1245.199;-49.21
1245.398;-49.03
1245.597;-48.83
1245.797;-48.67
1245.996;-48.49
1246.195;-48.33
1246.394;-48.17
1246.593;-48.02
1246.792;-47.91
1246.991;-47.77
1247.19;-47.68
1247.389;-47.6
1247.589;-47.53
1247.788;-47.51
1247.987;-47.49
1248.186;-47.52
1248.385;-47.56
1248.584;-47.62
1248.783;-47.73
1248.982;-47.83
1249.181;-47.94
1249.381;-48.03
1249.58;-48.1
1249.779;-48.14
1249.978;-48.08
1250.177;-47.99
1250.376;-47.79
1250.575;-47.49
1250.774;-47.13
1250.974;-46.69
1251.173;-46.2
1251.372;-45.57
1251.571;-45.14
1251.77;-44.56
1251.969;-43.99
1252.168;-43.45
1252.367;-42.91
1252.566;-42.42
1252.766;-41.92
1252.965;-41.49
1253.164;-41.07
1253.363;-40.68
1253.562;-40.36
1253.761;-40.05
1253.96;-39.81
1254.159;-39.59
1254.358;-39.42
1254.558;-39.31
1254.757;-39.21
1254.956;-39.17
1255.155;-39.17
1255.354;-39.2
1255.553;-39.28
1255.752;-39.37
1255.951;-39.5
1256.15;-39.65
1256.35;-39.8
1256.549;-39.99
1256.748;-40.15
1256.947;-40.31
1257.146;-40.43
1257.345;-40.52
1257.544;-40.58
1257.743;-40.54
1257.943;-40.45
1258.142;-40.26
1258.341;-40.0
1258.54;-39.68
1258.739;-39.29
1258.938;-38.86
1259.137;-38.41
1259.336;-37.96
1259.535;-37.52
1259.735;-37.08
1259.934;-36.69
1260.133;-36.32
1260.332;-35.94
1260.531;-35.7
1260.73;-35.46
1260.929;-35.24
1261.128;-35.07
1261.327;-34.94
1261.527;-34.85
1261.726;-34.78
1261.925;-34.75
1262.124;-34.73
1262.323;-34.75
1262.522;-34.77
1262.721;-34.8
1262.92;-34.83
1263.12;-34.84
1263.319;-34.86
1263.518;-34.85
1263.717;-34.8
1263.916;-34.72
1264.115;-34.59
1264.314;-34.43
1264.513;-34.21
1264.712;-33.96
1264.912;-33.66
1265.111;-33.33
1265.31;-33.01
1265.509;-32.67
1265.708;-32.33
1265.907;-32.0
1266.106;-31.69
1266.305;-31.43
1266.504;-31.18
1266.704;-30.99
1266.903;-30.82
1267.102;-30.7
1267.301;-30.64
1267.5;-30.61
1267.699;-30.64
1267.898;-30.71
1268.097;-30.85
1268.297;-31.05
1268.496;-31.29
1268.695;-31.61
1268.894;-31.97
1269.093;-32.41
1269.292;-32.93
1269.491;-33.52
1269.69;-34.21
1269.889;-34.97
1270.089;-35.82
1270.288;-36.74
1270.487;-37.63
1270.686;-38.51
1270.885;-38.75
1271.084;-38.6
1271.283;-37.93
1271.482;-36.94
1271.681;-35.62
1271.881;-34.65
1272.08;-33.59
1272.279;-32.6
1272.478;-31.73
1272.677;-30.91
1272.876;-30.2
1273.075;-29.55
1273.274;-28.98
1273.474;-28.47
1273.673;-28.0
1273.872;-27.6
1274.071;-27.23
1274.27;-26.91
1274.469;-26.63
1274.668;-26.37
1274.867;-26.16
1275.066;-25.94
1275.266;-25.84
1275.465;-25.7
1275.664;-25.61
1275.863;-25.55
1276.062;-25.5
1276.261;-25.48
1276.46;-25.46
1276.659;-25.47
1276.858;-25.49
1277.058;-25.5
1277.257;-25.55
1277.456;-25.56
1277.655;-25.59
1277.854;-25.6
1278.053;-25.6
1278.252;-25.6
1278.451;-25.56
1278.65;-25.53
1278.85;-25.47
1279.049;-25.4
1279.248;-25.31
1279.447;-25.19
1279.646;-25.07
1279.845;-24.9
1280.044;-24.73
1280.243;-24.55
1280.443;-24.33
1280.642;-24.13
1280.841;-23.89
1281.04;-23.65
1281.239;-23.42
1281.438;-23.18
1281.637;-22.96
1281.836;-22.71
1282.035;-22.48
1282.235;-22.27
1282.434;-22.05
1282.633;-21.86
1282.832;-21.65
1283.031;-21.46
1283.23;-21.27
1283.429;-21.1
1283.628;-20.95
1283.827;-20.79
1284.027;-20.66
1284.226;-20.54
1284.425;-20.43
1284.624;-20.36
1284.823;-20.27
1285.022;-20.23
1285.221;-20.19
1285.42;-20.16
1285.62;-20.17
1285.819;-20.18
1286.018;-20.22
1286.217;-20.25
1286.416;-20.31
1286.615;-20.4
1286.814;-20.47
1287.013;-20.57
1287.212;-20.65
1287.412;-20.74
1287.611;-20.83
1287.81;-20.9
1288.009;-20.96
1288.208;-20.98
1288.407;-20.98
1288.606;-20.95
1288.805;-20.88
1289.004;-20.79
1289.204;-20.64
1289.403;-20.47
1289.602;-20.28
1289.801;-20.06
1290.0;-19.84
1290.199;-19.6
1290.398;-19.37
1290.597;-19.14
1290.797;-18.91
1290.996;-18.7
1291.195;-18.5
1291.394;-18.33
1291.593;-18.16
1291.792;-18.04
1291.991;-17.95
1292.19;-17.87
1292.389;-17.85
1292.589;-17.83
1292.788;-17.86
1292.987;-17.92
1293.186;-18.02
1293.385;-18.17
1293.584;-18.31
1293.783;-18.53
1293.982;-18.76
1294.181;-19.03
1294.381;-19.34
1294.58;-19.66
1294.779;-20.02
1294.978;-20.39
1295.177;-20.77
1295.376;-21.14
1295.575;-21.47
1295.774;-21.78
1295.974;-21.99
1296.173;-22.14
1296.372;-22.18
1296.571;-22.11
1296.77;-21.96
1296.969;-21.7
1297.168;-21.4
1297.367;-21.02
1297.566;-20.63
1297.766;-20.24
1297.965;-19.84
1298.164;-19.47
1298.363;-19.1
1298.562;-18.75
1298.761;-18.45
1298.96;-18.16
1299.159;-17.93
1299.358;-17.7
1299.558;-17.51
1299.757;-17.35
1299.956;-17.23
1300.155;-17.14
1300.354;-17.07
1300.553;-17.02
1300.752;-17.0
1300.951;-17.01
1301.15;-17.06
1301.35;-17.1
1301.549;-17.21
1301.748;-17.29
1301.947;-17.42
1302.146;-17.56
1302.345;-17.71
1302.544;-17.91
1302.743;-18.1
1302.943;-18.33
1303.142;-18.57
1303.341;-18.83
1303.54;-19.13
1303.739;-19.43
1303.938;-19.78
1304.137;-20.14
1304.336;-20.54
1304.535;-20.99
1304.735;-21.46
1304.934;-22.01
1305.133;-22.59
1305.332;-23.26
1305.531;-23.99
1305.73;-24.8
1305.929;-25.72
1306.128;-26.71
1306.327;-27.77
1306.527;-29.02
1306.726;-29.72
1306.925;-30.18
1307.124;-30.1
1307.323;-29.42
1307.522;-28.37
1307.721;-27.18
1307.92;-25.77
1308.12;-24.85
1308.319;-23.82
1308.518;-22.89
1308.717;-22.06
1308.916;-21.29
1309.115;-20.63
1309.314;-20.03
1309.513;-19.51
1309.712;-19.06
1309.912;-18.65
1310.111;-18.32
1310.31;-18.03
1310.509;-17.8
1310.708;-17.62
1310.907;-17.48
1311.106;-17.41
1311.305;-17.37
1311.504;-17.4
1311.704;-17.46
1311.903;-17.58
1312.102;-17.76
1312.301;-17.98
1312.5;-18.28
1312.699;-18.6
1312.898;-19.01
1313.097;-19.47
1313.297;-20.0
1313.496;-20.61
1313.695;-21.27
1313.894;-22.02
1314.093;-22.83
1314.292;-23.68
1314.491;-24.58
1314.69;-25.41
1314.889;-26.14
1315.089;-26.63
1315.288;-26.79
1315.487;-26.61
1315.686;-26.11
1315.885;-25.44
1316.084;-24.69
1316.283;-23.94
1316.482;-23.24
1316.681;-22.58
1316.881;-22.02
1317.08;-21.51
1317.279;-21.09
1317.478;-20.72
1317.677;-20.42
1317.876;-20.2
1318.075;-20.02
1318.274;-19.92
1318.474;-19.86
1318.673;-19.88
1318.872;-19.95
1319.071;-20.07
1319.27;-20.26
1319.469;-20.48
1319.668;-20.79
1319.867;-21.15
1320.066;-21.57
1320.266;-22.07
1320.465;-22.62
1320.664;-23.26
1320.863;-23.94
1321.062;-24.71
1321.261;-25.55
1321.46;-26.43
1321.659;-27.33
1321.858;-28.18
1322.058;-29.09
1322.257;-29.46
1322.456;-29.68
1322.655;-29.57
1322.854;-29.18
1323.053;-28.63
1323.252;-27.97
1323.451;-27.33
1323.65;-26.7
1323.85;-26.04
1324.049;-25.66
1324.248;-25.25
1324.447;-24.91
1324.646;-24.63
1324.845;-24.43
1325.044;-24.29
1325.243;-24.22
1325.443;-24.22
1325.642;-24.28
1325.841;-24.4
1326.04;-24.58
1326.239;-24.82
1326.438;-25.13
1326.637;-25.48
1326.836;-25.93
1327.035;-26.43
1327.235;-27.02
1327.434;-27.69
1327.633;-28.61
1327.832;-29.33
1328.031;-30.29
1328.23;-31.42
1328.429;-32.69
1328.628;-34.14
1328.827;-35.81
1329.027;-37.7
1329.226;-40.21
1329.425;-41.63
1329.624;-42.5
1329.823;-41.91
1330.022;-40.45
1330.221;-38.85
1330.42;-37.42
1330.62;-35.99
1330.819;-35.18
1331.018;-34.37
1331.217;-33.69
1331.416;-33.15
1331.615;-32.7
1331.814;-32.36
1332.013;-32.08
1332.212;-31.87
1332.412;-31.74
1332.611;-31.65
1332.81;-31.61
1333.009;-31.59
1333.208;-31.6
1333.407;-31.64
1333.606;-31.69
1333.805;-31.77
1334.004;-31.83
1334.204;-31.9
1334.403;-31.96
1334.602;-32.02
1334.801;-32.08
1335.0;-32.11
1335.199;-32.16
1335.398;-32.18
1335.597;-32.2
1335.797;-32.24
1335.996;-32.27
1336.195;-32.31
1336.394;-32.35
1336.593;-32.42
1336.792;-32.48
1336.991;-32.58
1337.19;-32.72
1337.389;-32.87
1337.589;-33.07
1337.788;-33.28
1337.987;-33.52
1338.186;-33.81
1338.385;-34.12
1338.584;-34.49
1338.783;-34.87
1338.982;-35.3
1339.181;-35.76
1339.381;-36.25
1339.58;-36.77
1339.779;-37.29
1339.978;-37.84
1340.177;-38.35
1340.376;-38.95
1340.575;-39.29
1340.774;-39.64
1340.974;-39.88
1341.173;-40.03
1341.372;-40.07
1341.571;-40.01
1341.77;-39.89
1341.969;-39.69
1342.168;-39.48
1342.367;-39.25
1342.566;-39.03
1342.766;-38.84
1342.965;-38.66
1343.164;-38.53
1343.363;-38.44
1343.562;-38.37
1343.761;-38.37
1343.96;-38.41
1344.159;-38.5
1344.358;-38.63
1344.558;-38.81
1344.757;-39.06
1344.956;-39.32
1345.155;-39.66
1345.354;-40.03
1345.553;-40.48
1345.752;-40.99
1345.951;-41.56
1346.15;-42.22
1346.35;-42.92
1346.549;-43.73
1346.748;-44.61
1346.947;-45.58
1347.146;-46.67
1347.345;-47.81
1347.544;-49.42
1347.743;-50.51
1347.943;-51.85
1348.142;-53.02
1348.341;-53.79
1348.54;-53.93
1348.739;-53.53
1348.938;-52.81
1349.137;-51.96
1349.336;-51.12
1349.535;-50.38
1349.735;-49.73
1349.934;-49.22
1350.133;-48.82
1350.332;-48.57
1350.531;-48.37
1350.73;-48.2
1350.929;-48.12
1351.128;-48.08
1351.327;-48.17
1351.527;-48.35
1351.726;-48.66
1351.925;-49.03
1352.124;-49.46
1352.323;-49.99
1352.522;-50.63
1352.721;-51.34
1352.92;-52.19
1353.12;-53.24
1353.319;-54.31
1353.518;-55.61
1353.717;-57.11
1353.916;-58.96
1354.115;-60.2
1354.314;-61.41
1354.513;-61.62
1354.712;-61.03
1354.912;-59.81
1355.111;-58.36
1355.31;-56.92
1355.509;-55.39
1355.708;-54.85
1355.907;-54.18
1356.106;-53.41
1356.305;-52.72
1356.504;-52.17
1356.704;-51.6
1356.903;-51.31
1357.102;-51.31
1357.301;-51.22
1357.5;-51.15
1357.699;-51.15
1357.898;-51.13
1358.097;-51.14
1358.297;-51.34
1358.496;-51.66
1358.695;-51.94
1358.894;-52.34
1359.093;-52.79
1359.292;-53.19
1359.491;-53.94
1359.69;-54.76
1359.889;-55.63
1360.089;-56.46
1360.288;-57.33
1360.487;-58.16
1360.686;-59.53
1360.885;-60.63
1361.084;-61.91
1361.283;-62.89
1361.482;-63.43
1361.681;-63.45
1361.881;-62.87
1362.08;-62.1
1362.279;-61.53
1362.478;-60.79
1362.677;-59.86
1362.876;-58.85
1363.075;-58.05
1363.274;-57.26
1363.474;-56.84
1363.673;-56.47
1363.872;-56.22
1364.071;-56.16
1364.27;-56.16
1364.469;-56.3
1364.668;-56.73
1364.867;-56.95
1365.066;-57.0
1365.266;-57.31
1365.465;-57.41
1365.664;-57.76
1365.863;-58.15
1366.062;-58.64
1366.261;-59.07
1366.46;-59.7
1366.659;-60.51
1366.858;-61.46
1367.058;-62.44
1367.257;-63.46
1367.456;-64.59
1367.655;-65.58
1367.854;-66.58
1368.053;-67.07
1368.252;-67.06
1368.451;-67.09
1368.65;-66.52
1368.85;-65.67
1369.049;-64.74
1369.248;-63.92
1369.447;-63.16
1369.646;-62.53
1369.845;-62.31
1370.044;-61.92
1370.243;-61.59
1370.443;-61.25
1370.642;-60.96
1370.841;-61.09
1371.04;-61.17
1371.239;-61.21
1371.438;-61.18
1371.637;-61.17
1371.836;-61.23
1372.035;-61.54
1372.235;-61.95
1372.434;-62.34
1372.633;-62.74
1372.832;-63.2
1373.031;-63.72
1373.23;-64.4
1373.429;-65.24
1373.628;-66.17
1373.827;-67.12
1374.027;-68.04
1374.226;-69.25
1374.425;-70.52
1374.624;-72.13
1374.823;-73.55
1375.022;-74.26
1375.221;-74.33
1375.42;-74.09
1375.62;-73.38
1375.819;-72.2
1376.018;-71.24
1376.217;-70.34
1376.416;-69.5
1376.615;-68.88
1376.814;-68.23
1377.013;-67.95
1377.212;-67.55
1377.412;-67.15
1377.611;-66.82
1377.81;-66.5
1378.009;-66.29
1378.208;-66.22
1378.407;-66.3
1378.606;-66.47
1378.805;-66.65
1379.004;-66.83
1379.204;-67.01
1379.403;-67.14
1379.602;-67.35
1379.801;-67.56
1380.0;-68.03
1380.199;-68.51
1380.398;-69.18
1380.597;-69.95
1380.797;-70.84
1380.996;-71.57
1381.195;-72.42
1381.394;-73.08
1381.593;-73.03
1381.792;-73.95
1381.991;-74.43
1382.19;-75.26
1382.389;-76.02
1382.589;-77.81
1382.788;-78.17
1382.987;-78.14
1383.186;-79.21
1383.385;-77.92
1383.584;-77.5
1383.783;-76.68
1383.982;-76.71
1384.181;-76.19
1384.381;-75.61
1384.58;-75.73
1384.779;-74.63
1384.978;-74.72
1385.177;-74.5
1385.376;-74.11
1385.575;-74.07
1385.774;-73.44
1385.974;-73.54
1386.173;-72.96
1386.372;-73.37
1386.571;-73.08
1386.77;-72.76
1386.969;-72.78
1387.168;-72.71
1387.367;-72.63
1387.566;-72.6
1387.766;-73.05
1387.965;-73.09
1388.164;-73.28
1388.363;-73.4
1388.562;-73.82
1388.761;-73.28
1388.96;-73.47
1389.159;-73.47
1389.358;-73.68
1389.558;-74.16
1389.757;-74.18
1389.956;-74.27
1390.155;-74.98
1390.354;-74.97
1390.553;-75.22
1390.752;-75.6
1390.951;-75.72
1391.15;-76.48
1391.35;-76.48
1391.549;-76.49
1391.748;-77.43
1391.947;-78.11
1392.146;-78.64
1392.345;-78.11
1392.544;-79.85
1392.743;-79.64
1392.943;-80.84
1393.142;-79.33
1393.341;-78.84
1393.54;-78.84
1393.739;-78.24
1393.938;-79.85
1394.137;-78.58
1394.336;-77.43
1394.535;-78.47
1394.735;-78.07
1394.934;-77.65
1395.133;-78.21
1395.332;-77.13
1395.531;-76.99
1395.73;-76.71
1395.929;-76.61
1396.128;-76.91
1396.327;-76.45
1396.527;-76.82
1396.726;-76.32
1396.925;-76.73
1397.124;-75.9
1397.323;-76.27
1397.522;-75.84
1397.721;-75.92
1397.92;-75.99
1398.12;-76.01
1398.319;-75.96
1398.518;-76.5
1398.717;-77.61
1398.916;-76.11
1399.115;-77.23
1399.314;-76.5
1399.513;-77.28
1399.712;-77.06
1399.912;-77.98
1400.111;-77.57
1400.31;-77.4
1400.509;-77.26
1400.708;-76.89
1400.907;-78.54
1401.106;-77.75
1401.305;-78.3
1401.504;-77.93
1401.704;-78.7
1401.903;-78.33
1402.102;-77.91
1402.301;-77.72
1402.5;-78.12
1402.699;-78.54
1402.898;-77.36
1403.097;-79.51
1403.297;-78.4
1403.496;-77.91
1403.695;-78.59
1403.894;-78.88
1404.093;-79.21
1404.292;-79.37
1404.491;-78.65
1404.69;-78.73
1404.889;-80.17
1405.089;-82.38
1405.288;-80.01
1405.487;-79.68
1405.686;-79.21
1405.885;-80.85
1406.084;-79.06
1406.283;-80.41
1406.482;-80.62
1406.681;-79.52
1406.881;-80.06
1407.08;-81.14
1407.279;-80.86
1407.478;-79.52
1407.677;-82.33
1407.876;-81.05
1408.075;-80.14
1408.274;-80.77
1408.474;-82.53
1408.673;-80.59
1408.872;-80.81
1409.071;-82.53
1409.27;-81.14
1409.469;-82.53
1409.668;-80.18
1409.867;-80.34
1410.066;-81.3
1410.266;-81.14
1410.465;-82.02
1410.664;-80.42
1410.863;-81.9
1411.062;-80.9
1411.261;-79.91
1411.46;-81.05
1411.659;-81.05
1411.858;-80.86
1412.058;-80.5
1412.257;-80.5
1412.456;-79.13
1412.655;-79.66
1412.854;-80.26
1413.053;-78.66
1413.252;-78.89
1413.451;-80.68
1413.65;-79.7
1413.85;-79.7
1414.049;-79.74
1414.248;-81.68
1414.447;-80.27
1414.646;-80.51
1414.845;-83.97
1415.044;-80.23
1415.243;-83.52
1415.443;-80.78
1415.642;-80.43
1415.841;-80.91
1416.04;-82.54
1416.239;-80.31
1416.438;-80.03
1416.637;-79.99
1416.836;-80.6
1417.035;-80.6
1417.235;-82.27
1417.434;-79.53
1417.633;-82.4
1417.832;-80.96
1418.031;-81.36
1418.23;-80.27
1418.429;-81.68
1418.628;-79.88
1418.827;-80.27
1419.027;-81.91
1419.226;-79.92
1419.425;-81.06
1419.624;-80.23
1419.823;-80.51
1420.022;-81.06
1420.221;-79.46
1420.42;-79.99
1420.62;-80.39
1420.819;-81.15
1421.018;-80.11
1421.217;-80.96
1421.416;-80.43
1421.615;-81.07
1421.814;-79.71
1422.013;-78.91
1422.212;-79.68
1422.412;-79.96
1422.611;-81.8
1422.81;-81.58
1423.009;-80.92
1423.208;-78.82
1423.407;-81.63
1423.606;-79.37
1423.805;-80.36
1424.004;-80.7
1424.204;-81.92
1424.403;-79.54
1424.602;-81.32
1424.801;-80.04
1425.0;-80.83
