Wavelength (nm);Intensity (dBm)
1131.0;1131.0
1200.0;-62.23
1200.199;-62.22
1200.398;-62.15
1200.597;-62.09
1200.797;-61.99
1200.996;-62.0
1201.195;-61.95
1201.394;-61.84
1201.593;-61.78
1201.792;-61.78
1201.991;-61.75
1202.19;-61.66
1202.389;-61.61
1202.589;-61.61
1202.788;-61.59
1202.987;-61.56
1203.186;-61.51
1203.385;-61.45
1203.584;-61.43
1203.783;-61.46
1203.982;-61.44
1204.181;-61.36
1204.381;-61.35
1204.58;-61.36
1204.779;-61.31
1204.978;-61.28
1205.177;-61.26
1205.376;-61.24
1205.575;-61.25
1205.774;-61.19
1205.974;-61.18
1206.173;-61.18
1206.372;-61.14
1206.571;-61.1
1206.77;-61.02
1206.969;-61.03
1207.168;-60.98
1207.367;-60.87
1207.566;-60.79
1207.766;-60.73
1207.965;-60.68
1208.164;-60.6
1208.363;-60.48
1208.562;-60.44
1208.761;-60.39
1208.96;-60.36
1209.159;-60.26
1209.358;-60.21
1209.558;-60.23
1209.757;-60.19
1209.956;-60.17
1210.155;-60.14
1210.354;-60.12
1210.553;-60.17
1210.752;-60.16
1210.951;-60.16
1211.15;-60.15
1211.35;-60.2
1211.549;-60.25
1211.748;-60.22
1211.947;-60.23
1212.146;-60.26
1212.345;-60.28
1212.544;-60.28
1212.743;-60.23
1212.943;-60.26
1213.142;-60.26
1213.341;-60.19
1213.54;-60.12
1213.739;-60.07
1213.938;-60.03
1214.137;-59.92
1214.336;-59.81
1214.535;-59.75
1214.735;-59.68
1214.934;-59.57
1215.133;-59.45
1215.332;-59.36
1215.531;-59.32
1215.73;-59.24
1215.929;-59.17
1216.128;-59.08
1216.327;-59.04
1216.527;-59.01
1216.726;-58.93
1216.925;-58.89
1217.124;-58.89
1217.323;-58.87
1217.522;-58.85
1217.721;-58.81
1217.92;-58.84
1218.12;-58.85
1218.319;-58.84
1218.518;-58.85
1218.717;-58.87
1218.916;-58.92
1219.115;-58.9
1219.314;-58.9
1219.513;-58.93
1219.712;-58.94
1219.912;-58.93
1220.111;-58.87
1220.31;-58.79
1220.509;-58.77
1220.708;-58.68
1220.907;-58.55
1221.106;-58.45
1221.305;-58.35
1221.504;-58.24
1221.704;-58.11
1221.903;-58.02
1222.102;-57.9
1222.301;-57.82
1222.5;-57.71
1222.699;-57.62
1222.898;-57.57
1223.097;-57.51
1223.297;-57.44
1223.496;-57.38
1223.695;-57.36
1223.894;-57.34
1224.093;-57.27
1224.292;-57.24
1224.491;-57.24
1224.69;-57.2
1224.889;-57.16
1225.089;-57.11
1225.288;-57.08
1225.487;-57.05
1225.686;-56.97
1225.885;-56.9
1226.084;-56.84
1226.283;-56.76
1226.482;-56.66
1226.681;-56.54
1226.881;-56.44
1227.08;-56.3
1227.279;-56.15
1227.478;-56.01
1227.677;-55.86
1227.876;-55.69
1228.075;-55.56
1228.274;-55.42
1228.474;-55.31
1228.673;-55.2
1228.872;-55.1
1229.071;-55.02
1229.27;-54.98
1229.469;-54.95
1229.668;-54.91
1229.867;-54.92
1230.066;-54.95
1230.266;-54.99
1230.465;-55.04
1230.664;-55.1
1230.863;-55.22
1231.062;-55.3
1231.261;-55.39
1231.46;-55.51
1231.659;-55.61
1231.858;-55.68
1232.058;-55.72
1232.257;-55.76
1232.456;-55.8
1232.655;-55.76
1232.854;-55.69
1233.053;-55.61
1233.252;-55.49
1233.451;-55.32
1233.65;-55.13
1233.85;-54.94
1234.049;-54.72
1234.248;-54.49
1234.447;-54.26
1234.646;-54.05
1234.845;-53.87
1235.044;-53.66
1235.243;-53.49
1235.443;-53.36
1235.642;-53.24
1235.841;-53.14
1236.04;-53.07
1236.239;-53.01
1236.438;-52.98
1236.637;-52.97
1236.836;-52.98
1237.035;-53.0
1237.235;-53.03
1237.434;-53.05
1237.633;-53.09
1237.832;-53.16
1238.031;-53.17
1238.23;-53.2
1238.429;-53.22
1238.628;-53.23
1238.827;-53.22
1239.027;-53.19
1239.226;-53.15
1239.425;-53.08
1239.624;-52.98
1239.823;-52.89
1240.022;-52.78
1240.221;-52.64
1240.42;-52.48
1240.62;-52.34
1240.819;-52.2
1241.018;-52.03
1241.217;-51.89
1241.416;-51.76
1241.615;-51.63
1241.814;-51.53
1242.013;-51.43
1242.212;-51.36
1242.412;-51.28
1242.611;-51.2
1242.81;-51.15
1243.009;-51.06
1243.208;-50.98
1243.407;-50.86
1243.606;-50.73
1243.805;-50.59
1244.004;-50.38
1244.204;-50.18
1244.403;-49.95
1244.602;-49.69
1244.801;-49.43
1245.0;-49.15
1245.199;-48.89
1245.398;-48.62
1245.597;-48.35
1245.797;-48.12
1245.996;-47.88
1246.195;-47.67
1246.394;-47.48
1246.593;-47.3
1246.792;-47.16
1246.991;-47.02
1247.19;-46.93
1247.389;-46.86
1247.589;-46.8
1247.788;-46.78
1247.987;-46.76
1248.186;-46.78
1248.385;-46.79
1248.584;-46.81
1248.783;-46.85
1248.982;-46.85
1249.181;-46.84
1249.381;-46.78
1249.58;-46.66
1249.779;-46.49
1249.978;-46.25
1250.177;-45.97
1250.376;-45.56
1250.575;-45.23
1250.774;-44.81
1250.974;-44.38
1251.173;-43.94
1251.372;-43.48
1251.571;-43.08
1251.77;-42.66
1251.969;-42.27
1252.168;-41.92
1252.367;-41.59
1252.566;-41.31
1252.766;-41.04
1252.965;-40.83
1253.164;-40.65
1253.363;-40.5
1253.562;-40.42
1253.761;-40.36
1253.96;-40.36
1254.159;-40.4
1254.358;-40.49
1254.558;-40.64
1254.757;-40.8
1254.956;-41.01
1255.155;-41.25
1255.354;-41.47
1255.553;-41.71
1255.752;-41.87
1255.951;-41.98
1256.15;-41.98
1256.35;-41.87
1256.549;-41.67
1256.748;-41.32
1256.947;-40.9
1257.146;-40.41
1257.345;-39.88
1257.544;-39.37
1257.743;-38.82
1257.943;-38.31
1258.142;-37.81
1258.341;-37.34
1258.54;-36.93
1258.739;-36.53
1258.938;-36.19
1259.137;-35.83
1259.336;-35.63
1259.535;-35.43
1259.735;-35.27
1259.934;-35.18
1260.133;-35.13
1260.332;-35.16
1260.531;-35.25
1260.73;-35.39
1260.929;-35.61
1261.128;-35.88
1261.327;-36.24
1261.527;-36.66
1261.726;-37.12
1261.925;-37.63
1262.124;-38.22
1262.323;-38.58
1262.522;-38.9
1262.721;-39.04
1262.92;-38.9
1263.12;-38.52
1263.319;-37.93
1263.518;-37.19
1263.717;-36.39
1263.916;-35.41
1264.115;-34.74
1264.314;-33.97
1264.513;-33.27
1264.712;-32.6
1264.912;-32.01
1265.111;-31.48
1265.31;-31.0
1265.509;-30.6
1265.708;-30.25
1265.907;-29.96
1266.106;-29.75
1266.305;-29.58
1266.504;-29.5
1266.704;-29.47
1266.903;-29.51
1267.102;-29.64
1267.301;-29.82
1267.5;-30.11
1267.699;-30.47
1267.898;-30.92
1268.097;-31.5
1268.297;-32.16
1268.496;-32.98
1268.695;-33.92
1268.894;-35.04
1269.093;-36.35
1269.292;-37.81
1269.491;-39.67
1269.69;-40.6
1269.889;-40.95
1270.089;-40.13
1270.288;-38.61
1270.487;-36.94
1270.686;-35.1
1270.885;-33.94
1271.084;-32.72
1271.283;-31.68
1271.482;-30.77
1271.681;-29.99
1271.881;-29.33
1272.08;-28.76
1272.279;-28.31
1272.478;-27.92
1272.677;-27.63
1272.876;-27.41
1273.075;-27.26
1273.274;-27.19
1273.474;-27.16
1273.673;-27.21
1273.872;-27.3
1274.071;-27.44
1274.27;-27.63
1274.469;-27.83
1274.668;-28.08
1274.867;-28.32
1275.066;-28.54
1275.266;-28.75
1275.465;-28.88
1275.664;-28.95
1275.863;-28.9
1276.062;-28.75
1276.261;-28.5
1276.46;-28.14
1276.659;-27.71
1276.858;-27.21
1277.058;-26.7
1277.257;-26.19
1277.456;-25.61
1277.655;-25.22
1277.854;-24.77
1278.053;-24.38
1278.252;-24.01
1278.451;-23.7
1278.65;-23.44
1278.85;-23.22
1279.049;-23.07
1279.248;-22.94
1279.447;-22.87
1279.646;-22.85
1279.845;-22.86
1280.044;-22.94
1280.243;-23.03
1280.443;-23.18
1280.642;-23.35
1280.841;-23.55
1281.04;-23.79
1281.239;-24.02
1281.438;-24.25
1281.637;-24.45
1281.836;-24.62
1282.035;-24.73
1282.235;-24.75
1282.434;-24.68
1282.633;-24.51
1282.832;-24.23
1283.031;-23.88
1283.23;-23.46
1283.429;-23.02
1283.628;-22.54
1283.827;-22.08
1284.027;-21.63
1284.226;-21.2
1284.425;-20.82
1284.624;-20.47
1284.823;-20.16
1285.022;-19.91
1285.221;-19.68
1285.42;-19.53
1285.62;-19.41
1285.819;-19.34
1286.018;-19.34
1286.217;-19.37
1286.416;-19.48
1286.615;-19.63
1286.814;-19.85
1287.013;-20.12
1287.212;-20.44
1287.412;-20.84
1287.611;-21.28
1287.81;-21.78
1288.009;-22.31
1288.208;-22.87
1288.407;-23.44
1288.606;-23.91
1288.805;-24.3
1289.004;-24.49
1289.204;-24.46
1289.403;-24.21
1289.602;-23.75
1289.801;-23.17
1290.0;-22.51
1290.199;-21.83
1290.398;-21.18
1290.597;-20.55
1290.797;-19.98
1290.996;-19.45
1291.195;-18.99
1291.394;-18.6
1291.593;-18.25
1291.792;-17.99
1291.991;-17.77
1292.19;-17.63
1292.389;-17.55
1292.589;-17.52
1292.788;-17.57
1292.987;-17.66
1293.186;-17.84
1293.385;-18.08
1293.584;-18.39
1293.783;-18.79
1293.982;-19.26
1294.181;-19.84
1294.381;-20.51
1294.58;-21.28
1294.779;-22.2
1294.978;-23.23
1295.177;-24.41
1295.376;-25.67
1295.575;-26.91
1295.774;-27.92
1295.974;-28.38
1296.173;-27.93
1296.372;-26.9
1296.571;-25.4
1296.77;-24.31
1296.969;-23.13
1297.168;-22.05
1297.367;-21.11
1297.566;-20.27
1297.766;-19.56
1297.965;-18.95
1298.164;-18.42
1298.363;-17.98
1298.562;-17.59
1298.761;-17.29
1298.96;-17.06
1299.159;-16.88
1299.358;-16.78
1299.558;-16.69
1299.757;-16.68
1299.956;-16.73
1300.155;-16.82
1300.354;-16.97
1300.553;-17.14
1300.752;-17.38
1300.951;-17.65
1301.15;-17.96
1301.35;-18.31
1301.549;-18.68
1301.748;-19.07
1301.947;-19.45
1302.146;-19.84
1302.345;-20.2
1302.544;-20.52
1302.743;-20.8
1302.943;-20.98
1303.142;-21.1
1303.341;-21.13
1303.54;-21.1
1303.739;-21.02
1303.938;-20.88
1304.137;-20.74
1304.336;-20.58
1304.535;-20.44
1304.735;-20.34
1304.934;-20.26
1305.133;-20.25
1305.332;-20.27
1305.531;-20.37
1305.73;-20.54
1305.929;-20.76
1306.128;-21.1
1306.327;-21.49
1306.527;-22.0
1306.726;-22.61
1306.925;-23.32
1307.124;-24.19
1307.323;-25.17
1307.522;-26.31
1307.721;-27.55
1307.92;-29.04
1308.12;-29.77
1308.319;-30.06
1308.518;-29.54
1308.717;-28.36
1308.916;-26.96
1309.115;-25.35
1309.314;-24.33
1309.513;-23.2
1309.712;-22.21
1309.912;-21.35
1310.111;-20.6
1310.31;-19.97
1310.509;-19.41
1310.708;-18.92
1310.907;-18.52
1311.106;-18.19
1311.305;-17.95
1311.504;-17.75
1311.704;-17.62
1311.903;-17.54
1312.102;-17.51
1312.301;-17.56
1312.5;-17.64
1312.699;-17.79
1312.898;-17.97
1313.097;-18.2
1313.297;-18.49
1313.496;-18.81
1313.695;-19.18
1313.894;-19.55
1314.093;-19.96
1314.292;-20.37
1314.491;-20.76
1314.69;-21.14
1314.889;-21.44
1315.089;-21.68
1315.288;-21.81
1315.487;-21.84
1315.686;-21.78
1315.885;-21.61
1316.084;-21.4
1316.283;-21.11
1316.482;-20.83
1316.681;-20.54
1316.881;-20.26
1317.08;-20.02
1317.279;-19.78
1317.478;-19.6
1317.677;-19.45
1317.876;-19.33
1318.075;-19.29
1318.274;-19.26
1318.474;-19.3
1318.673;-19.38
1318.872;-19.51
1319.071;-19.71
1319.27;-19.93
1319.469;-20.22
1319.668;-20.54
1319.867;-20.92
1320.066;-21.34
1320.266;-21.8
1320.465;-22.3
1320.664;-22.83
1320.863;-23.37
1321.062;-23.9
1321.261;-24.39
1321.46;-24.85
1321.659;-25.18
1321.858;-25.42
1322.058;-25.51
1322.257;-25.47
1322.456;-25.33
1322.655;-25.09
1322.854;-24.81
1323.053;-24.5
1323.252;-24.19
1323.451;-23.9
1323.65;-23.64
1323.85;-23.44
1324.049;-23.26
1324.248;-23.15
1324.447;-23.08
1324.646;-23.07
1324.845;-23.12
1325.044;-23.22
1325.243;-23.4
1325.443;-23.62
1325.642;-23.92
1325.841;-24.29
1326.04;-24.71
1326.239;-25.23
1326.438;-25.8
1326.637;-26.48
1326.836;-27.24
1327.035;-28.12
1327.235;-29.35
1327.434;-30.29
1327.633;-31.61
1327.832;-33.09
1328.031;-34.78
1328.23;-36.59
1328.429;-38.32
1328.628;-39.58
1328.827;-39.31
1329.027;-38.23
1329.226;-36.82
1329.425;-35.23
1329.624;-34.27
1329.823;-33.31
1330.022;-32.49
1330.221;-31.83
1330.42;-31.3
1330.62;-30.89
1330.819;-30.6
1331.018;-30.39
1331.217;-30.3
1331.416;-30.27
1331.615;-30.33
1331.814;-30.46
1332.013;-30.67
1332.212;-30.96
1332.412;-31.29
1332.611;-31.72
1332.81;-32.19
1333.009;-32.7
1333.208;-33.26
1333.407;-33.83
1333.606;-34.39
1333.805;-34.89
1334.004;-35.31
1334.204;-35.59
1334.403;-35.69
1334.602;-35.64
1334.801;-35.41
1335.0;-35.1
1335.199;-34.7
1335.398;-34.28
1335.597;-33.88
1335.797;-33.49
1335.996;-33.15
1336.195;-32.84
1336.394;-32.58
1336.593;-32.38
1336.792;-32.23
1336.991;-32.15
1337.19;-32.11
1337.389;-32.15
1337.589;-32.23
1337.788;-32.37
1337.987;-32.59
1338.186;-32.85
1338.385;-33.18
1338.584;-33.56
1338.783;-34.01
1338.982;-34.55
1339.181;-35.14
1339.381;-35.84
1339.58;-36.6
1339.779;-37.46
1339.978;-38.62
1340.177;-39.49
1340.376;-40.64
1340.575;-41.88
1340.774;-43.14
1340.974;-44.27
1341.173;-45.13
1341.372;-45.48
1341.571;-45.29
1341.77;-44.7
1341.969;-43.9
1342.168;-43.07
1342.367;-42.28
1342.566;-41.59
1342.766;-40.99
1342.965;-40.5
1343.164;-40.13
1343.363;-39.82
1343.562;-39.62
1343.761;-39.49
1343.96;-39.45
1344.159;-39.5
1344.358;-39.6
1344.558;-39.79
1344.757;-40.04
1344.956;-40.37
1345.155;-40.78
1345.354;-41.25
1345.553;-41.84
1345.752;-42.49
1345.951;-43.27
1346.15;-44.16
1346.35;-45.17
1346.549;-46.36
1346.748;-47.69
1346.947;-49.65
1347.146;-51.09
1347.345;-53.06
1347.544;-55.06
1347.743;-56.4
1347.943;-56.22
1348.142;-54.83
1348.341;-53.2
1348.54;-51.63
1348.739;-50.34
1348.938;-49.25
1349.137;-48.35
1349.336;-47.63
1349.535;-47.04
1349.735;-46.57
1349.934;-46.17
1350.133;-46.01
1350.332;-45.93
1350.531;-45.87
1350.73;-45.87
1350.929;-45.91
1351.128;-46.01
1351.327;-46.21
1351.527;-46.51
1351.726;-46.94
1351.925;-47.4
1352.124;-47.94
1352.323;-48.69
1352.522;-49.31
1352.721;-50.09
1352.92;-51.01
1353.12;-52.12
1353.319;-53.17
1353.518;-54.41
1353.717;-55.69
1353.916;-56.76
1354.115;-57.55
1354.314;-57.91
1354.513;-57.64
1354.712;-57.08
1354.912;-56.28
1355.111;-55.27
1355.31;-54.29
1355.509;-53.33
1355.708;-52.82
1355.907;-52.39
1356.106;-51.85
1356.305;-51.35
1356.504;-50.97
1356.704;-50.54
1356.903;-50.4
1357.102;-50.54
1357.301;-50.61
1357.5;-50.68
1357.699;-50.83
1357.898;-50.93
1358.097;-51.1
1358.297;-51.47
1358.496;-51.95
1358.695;-52.44
1358.894;-53.02
1359.093;-53.72
1359.292;-54.36
1359.491;-55.39
1359.69;-56.56
1359.889;-57.85
1360.089;-59.56
1360.288;-60.77
1360.487;-62.3
1360.686;-64.12
1360.885;-65.93
1361.084;-66.71
1361.283;-65.87
1361.482;-64.29
1361.681;-63.01
1361.881;-61.53
1362.08;-60.34
1362.279;-59.65
1362.478;-58.94
1362.677;-58.14
1362.876;-57.3
1363.075;-56.65
1363.274;-55.92
1363.474;-55.73
1363.673;-55.54
1363.872;-55.47
1364.071;-55.55
1364.27;-55.7
1364.469;-56.01
1364.668;-56.61
1364.867;-57.01
1365.066;-57.27
1365.266;-57.78
1365.465;-58.06
1365.664;-58.79
1365.863;-59.36
1366.062;-60.1
1366.261;-60.91
1366.46;-61.93
1366.659;-63.19
1366.858;-64.69
1367.058;-66.29
1367.257;-67.92
1367.456;-69.66
1367.655;-70.41
1367.854;-70.39
1368.053;-69.26
1368.252;-67.72
1368.451;-66.86
1368.65;-65.75
1368.85;-64.61
1369.049;-63.58
1369.248;-62.75
1369.447;-62.05
1369.646;-61.58
1369.845;-61.45
1370.044;-61.26
1370.243;-61.06
1370.443;-60.89
1370.642;-60.76
1370.841;-61.01
1371.04;-61.25
1371.239;-61.55
1371.438;-61.68
1371.637;-61.86
1371.836;-62.08
1372.035;-62.62
1372.235;-63.25
1372.434;-63.88
1372.633;-64.63
1372.832;-65.33
1373.031;-66.1
1373.23;-67.14
1373.429;-68.31
1373.628;-69.59
1373.827;-70.78
1374.027;-72.27
1374.226;-73.14
1374.425;-73.91
1374.624;-73.98
1374.823;-72.94
1375.022;-72.11
1375.221;-70.84
1375.42;-70.0
1375.62;-69.14
1375.819;-68.34
1376.018;-67.76
1376.217;-67.21
1376.416;-66.78
1376.615;-66.39
1376.814;-66.18
1377.013;-66.08
1377.212;-65.98
1377.412;-65.88
1377.611;-65.86
1377.81;-65.72
1378.009;-65.78
1378.208;-65.88
1378.407;-66.1
1378.606;-66.49
1378.805;-67.0
1379.004;-67.36
1379.204;-67.66
1379.403;-68.09
1379.602;-68.24
1379.801;-68.81
1380.0;-69.25
1380.199;-70.1
1380.398;-70.65
1380.597;-72.05
1380.797;-72.98
1380.996;-73.8
1381.195;-74.59
1381.394;-75.26
1381.593;-74.79
1381.792;-75.79
1381.991;-76.66
1382.19;-76.91
1382.389;-76.69
1382.589;-77.27
1382.788;-79.12
1382.987;-79.69
1383.186;-80.3
1383.385;-78.0
1383.584;-77.72
1383.783;-77.33
1383.982;-78.05
1384.181;-78.05
1384.381;-77.9
1384.58;-77.02
1384.779;-76.56
1384.978;-78.23
1385.177;-76.72
1385.376;-76.48
1385.575;-76.9
1385.774;-76.15
1385.974;-75.79
1386.173;-75.27
1386.372;-75.6
1386.571;-75.06
1386.77;-74.64
1386.969;-74.76
1387.168;-74.5
1387.367;-74.13
1387.566;-73.79
1387.766;-74.1
1387.965;-73.99
1388.164;-73.68
1388.363;-73.47
1388.562;-73.37
1388.761;-73.24
1388.96;-73.1
1389.159;-73.0
1389.358;-72.99
1389.558;-72.96
1389.757;-72.99
1389.956;-73.24
1390.155;-73.54
1390.354;-73.52
1390.553;-74.08
1390.752;-73.65
1390.951;-74.23
1391.15;-74.07
1391.35;-74.95
1391.549;-74.97
1391.748;-75.42
1391.947;-75.71
1392.146;-76.66
1392.345;-77.11
1392.544;-77.07
1392.743;-76.7
1392.943;-77.85
1393.142;-77.2
1393.341;-78.09
1393.54;-76.97
1393.739;-76.88
1393.938;-77.07
1394.137;-77.71
1394.336;-77.29
1394.535;-77.52
1394.735;-76.99
1394.934;-76.79
1395.133;-77.54
1395.332;-76.29
1395.531;-76.9
1395.73;-76.3
1395.929;-76.49
1396.128;-76.77
1396.327;-76.01
1396.527;-76.88
1396.726;-76.49
1396.925;-76.42
1397.124;-76.26
1397.323;-76.01
1397.522;-75.68
1397.721;-76.3
1397.92;-75.83
1398.12;-75.98
1398.319;-76.19
1398.518;-76.35
1398.717;-76.46
1398.916;-77.75
1399.115;-77.08
1399.314;-77.36
1399.513;-76.81
1399.712;-77.12
1399.912;-77.79
1400.111;-77.61
1400.31;-77.23
1400.509;-78.7
1400.708;-78.3
1400.907;-78.38
1401.106;-77.98
1401.305;-79.51
1401.504;-78.65
1401.704;-77.88
1401.903;-77.7
1402.102;-79.75
1402.301;-78.2
1402.5;-77.53
1402.699;-79.0
1402.898;-78.94
1403.097;-78.85
1403.297;-78.46
1403.496;-77.88
1403.695;-77.61
1403.894;-78.12
1404.093;-78.12
1404.292;-79.18
1404.491;-79.18
1404.69;-80.54
1404.889;-79.28
1405.089;-79.41
1405.288;-80.13
1405.487;-80.49
1405.686;-79.51
1405.885;-78.94
1406.084;-79.51
1406.283;-79.86
1406.482;-80.58
1406.681;-80.9
1406.881;-81.05
1407.08;-80.59
1407.279;-79.98
1407.478;-81.14
1407.677;-81.96
1407.876;-81.84
1408.075;-80.22
1408.274;-81.78
1408.474;-82.2
1408.673;-80.5
1408.872;-80.68
1409.071;-79.29
1409.27;-81.1
1409.469;-80.5
1409.668;-81.0
1409.867;-81.05
1410.066;-81.45
1410.266;-80.42
1410.465;-81.56
1410.664;-80.77
1410.863;-79.32
1411.062;-80.42
1411.261;-80.72
1411.46;-81.5
1411.659;-80.26
1411.858;-80.59
1412.058;-81.35
1412.257;-79.8
1412.456;-83.69
1412.655;-80.55
1412.854;-82.02
1413.053;-82.02
1413.252;-81.05
1413.451;-80.06
1413.65;-81.31
1413.85;-80.87
1414.049;-80.31
1414.248;-79.33
1414.447;-80.27
1414.646;-79.92
1414.845;-82.54
1415.044;-82.03
1415.243;-80.39
1415.443;-81.11
1415.642;-80.23
1415.841;-80.6
1416.04;-81.68
1416.239;-80.11
1416.438;-79.67
1416.637;-80.35
1416.836;-80.69
1417.035;-81.46
1417.235;-79.88
1417.434;-79.36
1417.633;-79.92
1417.832;-81.57
1418.031;-80.91
1418.23;-80.03
1418.429;-80.31
1418.628;-78.9
1418.827;-81.06
1419.027;-79.17
1419.226;-80.43
1419.425;-80.15
1419.624;-79.49
1419.823;-81.51
1420.022;-80.87
1420.221;-80.31
1420.42;-81.06
1420.62;-80.78
1420.819;-80.78
1421.018;-80.23
1421.217;-82.82
1421.416;-81.57
1421.615;-80.04
1421.814;-80.2
1422.013;-79.47
1422.212;-81.58
1422.412;-79.75
1422.611;-79.96
1422.81;-79.96
1423.009;-78.79
1423.208;-79.09
1423.407;-79.15
1423.606;-78.97
1423.805;-80.04
1424.004;-80.12
1424.204;-79.15
1424.403;-79.12
1424.602;-80.44
1424.801;-80.04
1425.0;-79.82
