Wavelength;Intensity_Meas;Intensity_Ref;Difference_dB
1200.0000;-61.4200;-57.0400;-4.3800
1200.1990;-61.4000;-57.0100;-4.3900
1200.3980;-61.3700;-56.9700;-4.4000
1200.5970;-61.3200;-56.9600;-4.3600
1200.7970;-61.3200;-56.9200;-4.4000
1200.9960;-61.2500;-56.9000;-4.3500
1201.1950;-61.2000;-56.8600;-4.3400
1201.3940;-61.1900;-56.8000;-4.3900
1201.5930;-61.1200;-56.7800;-4.3400
1201.7920;-61.0300;-56.7400;-4.2900
1201.9910;-60.9700;-56.6800;-4.2900
1202.1900;-60.9400;-56.6500;-4.2900
1202.3890;-60.9000;-56.5600;-4.3400
1202.5890;-60.8000;-56.5200;-4.2800
1202.7880;-60.7600;-56.4800;-4.2800
1202.9870;-60.7400;-56.4300;-4.3100
1203.1860;-60.6800;-56.3600;-4.3200
1203.3850;-60.6100;-56.3000;-4.3100
1203.5840;-60.5600;-56.3000;-4.2600
1203.7830;-60.5500;-56.2500;-4.3000
1203.9820;-60.5200;-56.2000;-4.3200
1204.1810;-60.4800;-56.1500;-4.3300
1204.3810;-60.4500;-56.1100;-4.3400
1204.5800;-60.4200;-56.1100;-4.3100
1204.7790;-60.3900;-56.0600;-4.3300
1204.9780;-60.3500;-56.0100;-4.3400
1205.1770;-60.3300;-56.0000;-4.3300
1205.3760;-60.2800;-55.9800;-4.3000
1205.5750;-60.2500;-55.9600;-4.2900
1205.7740;-60.2300;-55.9300;-4.3000
1205.9740;-60.2000;-55.9100;-4.2900
1206.1730;-60.1400;-55.9200;-4.2200
1206.3720;-60.1600;-55.8800;-4.2800
1206.5710;-60.1600;-55.8700;-4.2900
1206.7700;-60.1000;-55.8300;-4.2700
1206.9690;-60.0800;-55.8100;-4.2700
1207.1680;-60.0900;-55.8300;-4.2600
1207.3670;-60.1200;-55.7800;-4.3400
1207.5660;-60.0900;-55.7300;-4.3600
1207.7660;-60.0600;-55.7100;-4.3500
1207.9650;-60.0800;-55.6900;-4.3900
1208.1640;-60.0800;-55.6500;-4.4300
1208.3630;-60.0700;-55.5800;-4.4900
1208.5620;-60.0100;-55.5500;-4.4600
1208.7610;-59.9800;-55.5300;-4.4500
1208.9600;-59.9700;-55.4700;-4.5000
1209.1590;-59.9600;-55.4200;-4.5400
1209.3580;-59.9000;-55.3500;-4.5500
1209.5580;-59.8500;-55.3200;-4.5300
1209.7570;-59.7800;-55.2900;-4.4900
1209.9560;-59.7700;-55.2200;-4.5500
1210.1550;-59.6900;-55.1700;-4.5200
1210.3540;-59.5900;-55.1200;-4.4700
1210.5530;-59.5600;-55.0900;-4.4700
1210.7520;-59.4900;-55.0300;-4.4600
1210.9510;-59.4300;-54.9700;-4.4600
1211.1500;-59.3300;-54.9500;-4.3800
1211.3500;-59.2600;-54.9100;-4.3500
1211.5490;-59.2200;-54.8600;-4.3600
1211.7480;-59.1400;-54.8200;-4.3200
1211.9470;-59.0800;-54.7900;-4.2900
1212.1460;-59.0000;-54.7700;-4.2300
1212.3450;-58.9600;-54.7300;-4.2300
1212.5440;-58.9200;-54.6800;-4.2400
1212.7430;-58.8500;-54.6700;-4.1800
1212.9430;-58.8000;-54.6400;-4.1600
1213.1420;-58.7700;-54.6200;-4.1500
1213.3410;-58.7500;-54.5800;-4.1700
1213.5400;-58.6900;-54.5600;-4.1300
1213.7390;-58.6200;-54.5500;-4.0700
1213.9380;-58.6300;-54.5200;-4.1100
1214.1370;-58.6100;-54.4700;-4.1400
1214.3360;-58.5600;-54.4200;-4.1400
1214.5350;-58.5100;-54.4100;-4.1000
1214.7350;-58.4700;-54.3900;-4.0800
1214.9340;-58.4500;-54.3300;-4.1200
1215.1330;-58.3800;-54.2800;-4.1000
1215.3320;-58.3200;-54.2400;-4.0800
1215.5310;-58.2900;-54.2100;-4.0800
1215.7300;-58.2500;-54.1500;-4.1000
1215.9290;-58.1900;-54.0900;-4.1000
1216.1280;-58.0900;-54.0500;-4.0400
1216.3270;-58.0400;-53.9900;-4.0500
1216.5270;-58.0000;-53.9400;-4.0600
1216.7260;-57.9400;-53.8800;-4.0600
1216.9250;-57.8400;-53.8200;-4.0200
1217.1240;-57.7700;-53.7900;-3.9800
1217.3230;-57.7500;-53.7100;-4.0400
1217.5220;-57.6800;-53.6500;-4.0300
1217.7210;-57.6000;-53.6100;-3.9900
1217.9200;-57.5200;-53.5600;-3.9600
1218.1200;-57.4800;-53.5200;-3.9600
1218.3190;-57.4500;-53.4500;-4.0000
1218.5180;-57.3700;-53.4300;-3.9400
1218.7170;-57.3200;-53.4000;-3.9200
1218.9160;-57.3000;-53.3500;-3.9500
1219.1150;-57.2700;-53.3100;-3.9600
1219.3140;-57.2500;-53.2700;-3.9800
1219.5130;-57.2100;-53.2500;-3.9600
1219.7120;-57.2100;-53.2200;-3.9900
1219.9120;-57.2300;-53.1700;-4.0600
1220.1110;-57.2100;-53.1600;-4.0500
1220.3100;-57.2000;-53.1200;-4.0800
1220.5090;-57.2300;-53.0900;-4.1400
1220.7080;-57.2600;-53.0400;-4.2200
1220.9070;-57.2900;-53.0000;-4.2900
1221.1060;-57.2800;-52.9700;-4.3100
1221.3050;-57.3300;-52.9200;-4.4100
1221.5040;-57.3500;-52.8600;-4.4900
1221.7040;-57.3700;-52.8100;-4.5600
1221.9030;-57.3700;-52.7700;-4.6000
1222.1020;-57.3700;-52.7100;-4.6600
1222.3010;-57.4200;-52.6400;-4.7800
1222.5000;-57.3900;-52.5700;-4.8200
1222.6990;-57.3400;-52.5100;-4.8300
1222.8980;-57.3300;-52.4500;-4.8800
1223.0970;-57.3100;-52.3900;-4.9200
1223.2970;-57.2800;-52.3000;-4.9800
1223.4960;-57.1900;-52.2300;-4.9600
1223.6950;-57.1500;-52.1700;-4.9800
1223.8940;-57.1200;-52.1000;-5.0200
1224.0930;-57.0500;-52.0400;-5.0100
1224.2920;-56.9900;-51.9700;-5.0200
1224.4910;-56.9100;-51.8900;-5.0200
1224.6900;-56.8700;-51.8400;-5.0300
1224.8890;-56.8200;-51.7600;-5.0600
1225.0890;-56.7500;-51.7200;-5.0300
1225.2880;-56.6900;-51.6500;-5.0400
1225.4870;-56.6400;-51.5800;-5.0600
1225.6860;-56.5900;-51.5300;-5.0600
1225.8850;-56.5200;-51.4900;-5.0300
1226.0840;-56.4400;-51.4400;-5.0000
1226.2830;-56.4000;-51.3800;-5.0200
1226.4820;-56.3100;-51.3200;-4.9900
1226.6810;-56.2200;-51.2900;-4.9300
1226.8810;-56.1400;-51.2400;-4.9000
1227.0800;-56.0400;-51.1900;-4.8500
1227.2790;-55.9400;-51.1300;-4.8100
1227.4780;-55.7500;-51.0800;-4.6700
1227.6770;-55.6500;-51.0300;-4.6200
1227.8760;-55.5200;-50.9700;-4.5500
1228.0750;-55.3700;-50.9200;-4.4500
1228.2740;-55.2100;-50.8600;-4.3500
1228.4740;-55.0400;-50.7900;-4.2500
1228.6730;-54.9100;-50.7300;-4.1800
1228.8720;-54.7400;-50.6700;-4.0700
1229.0710;-54.5600;-50.6100;-3.9500
1229.2700;-54.4300;-50.5200;-3.9100
1229.4690;-54.2800;-50.4400;-3.8400
1229.6680;-54.1500;-50.3800;-3.7700
1229.8670;-54.0000;-50.3000;-3.7000
1230.0660;-53.8900;-50.2300;-3.6600
1230.2660;-53.8200;-50.1400;-3.6800
1230.4650;-53.7300;-50.0500;-3.6800
1230.6640;-53.6700;-49.9900;-3.6800
1230.8630;-53.6400;-49.9200;-3.7200
1231.0620;-53.6300;-49.8500;-3.7800
1231.2610;-53.6500;-49.7800;-3.8700
1231.4600;-53.6800;-49.7200;-3.9600
1231.6590;-53.7300;-49.6600;-4.0700
1231.8580;-53.8000;-49.5900;-4.2100
1232.0580;-53.8800;-49.5400;-4.3400
1232.2570;-53.9600;-49.4700;-4.4900
1232.4560;-54.0700;-49.4200;-4.6500
1232.6550;-54.1800;-49.3600;-4.8200
1232.8540;-54.2600;-49.2900;-4.9700
1233.0530;-54.3300;-49.2600;-5.0700
1233.2520;-54.4300;-49.1900;-5.2400
1233.4510;-54.4700;-49.1300;-5.3400
1233.6500;-54.5000;-49.0800;-5.4200
1233.8500;-54.4700;-49.0100;-5.4600
1234.0490;-54.4500;-48.9700;-5.4800
1234.2480;-54.3900;-48.8900;-5.5000
1234.4470;-54.2800;-48.8300;-5.4500
1234.6460;-54.1600;-48.7700;-5.3900
1234.8450;-54.0200;-48.7000;-5.3200
1235.0440;-53.8500;-48.6300;-5.2200
1235.2430;-53.6500;-48.5500;-5.1000
1235.4430;-53.4500;-48.4800;-4.9700
1235.6420;-53.2700;-48.3900;-4.8800
1235.8410;-53.0600;-48.3000;-4.7600
1236.0400;-52.8500;-48.2300;-4.6200
1236.2390;-52.6600;-48.1300;-4.5300
1236.4380;-52.4900;-48.0600;-4.4300
1236.6370;-52.3300;-47.9700;-4.3600
1236.8360;-52.1500;-47.8700;-4.2800
1237.0350;-52.0300;-47.7900;-4.2400
1237.2350;-51.9100;-47.7000;-4.2100
1237.4340;-51.7900;-47.6200;-4.1700
1237.6330;-51.7000;-47.5300;-4.1700
1237.8320;-51.6400;-47.4600;-4.1800
1238.0310;-51.5800;-47.3700;-4.2100
1238.2300;-51.5300;-47.2900;-4.2400
1238.4290;-51.4800;-47.2200;-4.2600
1238.6280;-51.4900;-47.1400;-4.3500
1238.8270;-51.4600;-47.0600;-4.4000
1239.0270;-51.4400;-46.9800;-4.4600
1239.2260;-51.4200;-46.9000;-4.5200
1239.4250;-51.4100;-46.8300;-4.5800
1239.6240;-51.4200;-46.7400;-4.6800
1239.8230;-51.3600;-46.6600;-4.7000
1240.0220;-51.3400;-46.5700;-4.7700
1240.2210;-51.2900;-46.4800;-4.8100
1240.4200;-51.2100;-46.4000;-4.8100
1240.6200;-51.1400;-46.3000;-4.8400
1240.8190;-51.0400;-46.2000;-4.8400
1241.0180;-50.9400;-46.0800;-4.8600
1241.2170;-50.8000;-45.9700;-4.8300
1241.4160;-50.6500;-45.8400;-4.8100
1241.6150;-50.5300;-45.7400;-4.7900
1241.8140;-50.3800;-45.6300;-4.7500
1242.0130;-50.2200;-45.5000;-4.7200
1242.2120;-50.0700;-45.3900;-4.6800
1242.4120;-49.9300;-45.2600;-4.6700
1242.6110;-49.7800;-45.1300;-4.6500
1242.8100;-49.6200;-45.0100;-4.6100
1243.0090;-49.4800;-44.8600;-4.6200
1243.2080;-49.3500;-44.7500;-4.6000
1243.4070;-49.2100;-44.6100;-4.6000
1243.6060;-49.0800;-44.4700;-4.6100
1243.8050;-48.9600;-44.3600;-4.6000
1244.0040;-48.8500;-44.2200;-4.6300
1244.2040;-48.7300;-44.1000;-4.6300
1244.4030;-48.6400;-43.9700;-4.6700
1244.6020;-48.5800;-43.8300;-4.7500
1244.8010;-48.4900;-43.7200;-4.7700
1245.0000;-48.4300;-43.5900;-4.8400
1245.1990;-48.3900;-43.4700;-4.9200
1245.3980;-48.3600;-43.3300;-5.0300
1245.5970;-48.3200;-43.2000;-5.1200
1245.7970;-48.3000;-43.0700;-5.2300
1245.9960;-48.2900;-42.9300;-5.3600
1246.1950;-48.2800;-42.8000;-5.4800
1246.3940;-48.2600;-42.6500;-5.6100
1246.5930;-48.2500;-42.5000;-5.7500
1246.7920;-48.2300;-42.3700;-5.8600
1246.9910;-48.1900;-42.2000;-5.9900
1247.1900;-48.1200;-42.0600;-6.0600
1247.3890;-48.0400;-41.9100;-6.1300
1247.5890;-47.9400;-41.7400;-6.2000
1247.7880;-47.7900;-41.6000;-6.1900
1247.9870;-47.6200;-41.4300;-6.1900
1248.1860;-47.4200;-41.2800;-6.1400
1248.3850;-47.2000;-41.1100;-6.0900
1248.5840;-46.9600;-40.9400;-6.0200
1248.7830;-46.7000;-40.8000;-5.9000
1248.9820;-46.4400;-40.6400;-5.8000
1249.1810;-46.1500;-40.4900;-5.6600
1249.3810;-45.8700;-40.3300;-5.5400
1249.5800;-45.5400;-40.1700;-5.3700
1249.7790;-45.3100;-40.0300;-5.2800
1249.9780;-45.0500;-39.8600;-5.1900
1250.1770;-44.7700;-39.7200;-5.0500
1250.3760;-44.5200;-39.5700;-4.9500
1250.5750;-44.2700;-39.4100;-4.8600
1250.7740;-44.0200;-39.2700;-4.7500
1250.9740;-43.8000;-39.1200;-4.6800
1251.1730;-43.5500;-38.9800;-4.5700
1251.3720;-43.3100;-38.8100;-4.5000
1251.5710;-43.0800;-38.6600;-4.4200
1251.7700;-42.8200;-38.5100;-4.3100
1251.9690;-42.5700;-38.3400;-4.2300
1252.1680;-42.2900;-38.2000;-4.0900
1252.3670;-42.0200;-38.0200;-4.0000
1252.5660;-41.7400;-37.8700;-3.8700
1252.7660;-41.4400;-37.7000;-3.7400
1252.9650;-41.1500;-37.5400;-3.6100
1253.1640;-40.8300;-37.3800;-3.4500
1253.3630;-40.5100;-37.1900;-3.3200
1253.5620;-40.2000;-37.0300;-3.1700
1253.7610;-39.8800;-36.8600;-3.0200
1253.9600;-39.6000;-36.7000;-2.9000
1254.1590;-39.3000;-36.5500;-2.7500
1254.3580;-39.0300;-36.3700;-2.6600
1254.5580;-38.7800;-36.2200;-2.5600
1254.7570;-38.5400;-36.0500;-2.4900
1254.9560;-38.3300;-35.8700;-2.4600
1255.1550;-38.1500;-35.7500;-2.4000
1255.3540;-38.0100;-35.5900;-2.4200
1255.5530;-37.8900;-35.4700;-2.4200
1255.7520;-37.8000;-35.3100;-2.4900
1255.9510;-37.7600;-35.1600;-2.6000
1256.1500;-37.7400;-35.0200;-2.7200
1256.3500;-37.7600;-34.8700;-2.8900
1256.5490;-37.8200;-34.7500;-3.0700
1256.7480;-37.9000;-34.6000;-3.3000
1256.9470;-38.0200;-34.4600;-3.5600
1257.1460;-38.1600;-34.3100;-3.8500
1257.3450;-38.3500;-34.1600;-4.1900
1257.5440;-38.5400;-34.0300;-4.5100
1257.7430;-38.7500;-33.8700;-4.8800
1257.9430;-38.9800;-33.7300;-5.2500
1258.1420;-39.2000;-33.5700;-5.6300
1258.3410;-39.4100;-33.4200;-5.9900
1258.5400;-39.5900;-33.2800;-6.3100
1258.7390;-39.7400;-33.1100;-6.6300
1258.9380;-39.8400;-32.9600;-6.8800
1259.1370;-39.9000;-32.8000;-7.1000
1259.3360;-39.9100;-32.6400;-7.2700
1259.5350;-39.8600;-32.4900;-7.3700
1259.7350;-39.7800;-32.3200;-7.4600
1259.9340;-39.6600;-32.1700;-7.4900
1260.1330;-39.5300;-32.0200;-7.5100
1260.3320;-39.3900;-31.8600;-7.5300
1260.5310;-39.2400;-31.7200;-7.5200
1260.7300;-39.1100;-31.5600;-7.5500
1260.9290;-38.9800;-31.4100;-7.5700
1261.1280;-38.8600;-31.2500;-7.6100
1261.3270;-38.7800;-31.1100;-7.6700
1261.5270;-38.6900;-30.9800;-7.7100
1261.7260;-38.6200;-30.8300;-7.7900
1261.9250;-38.5400;-30.6900;-7.8500
1262.1240;-38.4400;-30.5400;-7.9000
1262.3230;-38.3200;-30.4000;-7.9200
1262.5220;-38.1500;-30.2700;-7.8800
1262.7210;-37.9200;-30.1300;-7.7900
1262.9200;-37.6000;-30.0000;-7.6000
1263.1200;-37.2200;-29.8500;-7.3700
1263.3190;-36.7800;-29.7100;-7.0700
1263.5180;-36.2500;-29.5800;-6.6700
1263.7170;-35.6000;-29.4400;-6.1600
1263.9160;-35.0800;-29.3000;-5.7800
1264.1150;-34.4800;-29.1500;-5.3300
1264.3140;-33.8400;-29.0100;-4.8300
1264.5130;-33.2400;-28.8800;-4.3600
1264.7120;-32.6500;-28.7300;-3.9200
1264.9120;-32.0700;-28.6100;-3.4600
1265.1110;-31.5400;-28.4600;-3.0800
1265.3100;-31.0300;-28.3200;-2.7100
1265.5090;-30.5800;-28.1900;-2.3900
1265.7080;-30.1600;-28.0500;-2.1100
1265.9070;-29.7700;-27.9300;-1.8400
1266.1060;-29.4300;-27.7800;-1.6500
1266.3050;-29.1100;-27.6600;-1.4500
1266.5040;-28.8500;-27.5400;-1.3100
1266.7040;-28.6300;-27.4100;-1.2200
1266.9030;-28.4300;-27.2900;-1.1400
1267.1020;-28.2700;-27.1600;-1.1100
1267.3010;-28.1300;-27.0400;-1.0900
1267.5000;-28.0400;-26.9300;-1.1100
1267.6990;-27.9600;-26.8000;-1.1600
1267.8980;-27.9000;-26.6900;-1.2100
1268.0970;-27.8900;-26.5700;-1.3200
1268.2970;-27.8500;-26.4600;-1.3900
1268.4960;-27.8500;-26.3500;-1.5000
1268.6950;-27.8500;-26.2300;-1.6200
1268.8940;-27.8500;-26.1200;-1.7300
1269.0930;-27.8600;-25.9700;-1.8900
1269.2920;-27.8500;-25.8800;-1.9700
1269.4910;-27.8500;-25.7600;-2.0900
1269.6900;-27.8500;-25.6600;-2.1900
1269.8890;-27.8300;-25.5300;-2.3000
1270.0890;-27.8300;-25.4100;-2.4200
1270.2880;-27.8100;-25.3100;-2.5000
1270.4870;-27.8200;-25.1900;-2.6300
1270.6860;-27.8200;-25.0800;-2.7400
1270.8850;-27.8400;-24.9600;-2.8800
1271.0840;-27.9000;-24.8500;-3.0500
1271.2830;-27.9700;-24.7400;-3.2300
1271.4820;-28.0800;-24.6200;-3.4600
1271.6810;-28.2300;-24.5200;-3.7100
1271.8810;-28.4300;-24.4100;-4.0200
1272.0800;-28.7000;-24.3000;-4.4000
1272.2790;-29.0200;-24.2000;-4.8200
1272.4780;-29.4200;-24.0800;-5.3400
1272.6770;-29.9000;-23.9900;-5.9100
1272.8760;-30.4800;-23.8700;-6.6100
1273.0750;-31.1900;-23.7700;-7.4200
1273.2740;-32.0000;-23.6700;-8.3300
1273.4740;-32.9500;-23.5600;-9.3900
1273.6730;-34.0000;-23.4600;-10.5400
1273.8720;-35.1300;-23.3500;-11.7800
1274.0710;-36.2000;-23.2400;-12.9600
1274.2700;-36.9100;-23.1400;-13.7700
1274.4690;-36.9400;-23.0300;-13.9100
1274.6680;-36.1700;-22.9400;-13.2300
1274.8670;-34.9000;-22.8300;-12.0700
1275.0660;-33.4700;-22.7300;-10.7400
1275.2660;-32.0600;-22.6300;-9.4300
1275.4650;-30.7800;-22.5300;-8.2500
1275.6640;-29.6100;-22.4400;-7.1700
1275.8630;-28.5800;-22.3400;-6.2400
1276.0620;-27.6600;-22.2500;-5.4100
1276.2610;-26.8500;-22.1600;-4.6900
1276.4600;-26.1500;-22.0700;-4.0800
1276.6590;-25.4200;-21.9900;-3.4300
1276.8580;-24.9900;-21.8900;-3.1000
1277.0580;-24.5100;-21.8200;-2.6900
1277.2570;-24.1300;-21.7300;-2.4000
1277.4560;-23.7900;-21.6500;-2.1400
1277.6550;-23.5100;-21.5900;-1.9200
1277.8540;-23.3000;-21.5000;-1.8000
1278.0530;-23.1200;-21.4300;-1.6900
1278.2520;-23.0100;-21.3400;-1.6700
1278.4510;-22.9300;-21.2700;-1.6600
1278.6500;-22.8900;-21.2000;-1.6900
1278.8500;-22.9000;-21.1100;-1.7900
1279.0490;-22.9300;-21.0400;-1.8900
1279.2480;-23.0100;-20.9500;-2.0600
1279.4470;-23.0900;-20.8800;-2.2100
1279.6460;-23.2000;-20.8000;-2.4000
1279.8450;-23.3200;-20.7100;-2.6100
1280.0440;-23.4200;-20.6500;-2.7700
1280.2430;-23.5300;-20.5500;-2.9800
1280.4430;-23.6100;-20.4700;-3.1400
1280.6420;-23.6600;-20.3900;-3.2700
1280.8410;-23.6700;-20.3000;-3.3700
1281.0400;-23.6300;-20.2400;-3.3900
1281.2390;-23.5700;-20.1500;-3.4200
1281.4380;-23.4400;-20.0700;-3.3700
1281.6370;-23.3000;-19.9900;-3.3100
1281.8360;-23.1100;-19.9100;-3.2000
1282.0350;-22.9100;-19.8400;-3.0700
1282.2350;-22.7200;-19.7500;-2.9700
1282.4340;-22.5100;-19.6900;-2.8200
1282.6330;-22.3300;-19.6200;-2.7100
1282.8320;-22.1500;-19.5400;-2.6100
1283.0310;-22.0000;-19.4900;-2.5100
1283.2300;-21.8900;-19.4100;-2.4800
1283.4290;-21.8000;-19.3500;-2.4500
1283.6280;-21.7700;-19.2700;-2.5000
1283.8270;-21.7600;-19.2000;-2.5600
1284.0270;-21.8200;-19.1500;-2.6700
1284.2260;-21.9300;-19.0800;-2.8500
1284.4250;-22.0800;-19.0300;-3.0500
1284.6240;-22.3000;-18.9500;-3.3500
1284.8230;-22.5700;-18.8900;-3.6800
1285.0220;-22.9000;-18.8400;-4.0600
1285.2210;-23.3100;-18.7700;-4.5400
1285.4200;-23.7600;-18.7200;-5.0400
1285.6200;-24.2900;-18.6400;-5.6500
1285.8190;-24.8500;-18.5900;-6.2600
1286.0180;-25.4600;-18.5300;-6.9300
1286.2170;-26.0800;-18.4700;-7.6100
1286.4160;-26.6500;-18.4200;-8.2300
1286.6150;-27.1500;-18.3600;-8.7900
1286.8140;-27.4200;-18.3100;-9.1100
1287.0130;-27.4500;-18.2600;-9.1900
1287.2120;-27.2000;-18.2000;-9.0000
1287.4120;-26.7000;-18.1700;-8.5300
1287.6110;-26.0600;-18.1100;-7.9500
1287.8100;-25.3000;-18.0700;-7.2300
1288.0090;-24.5300;-18.0200;-6.5100
1288.2080;-23.7600;-17.9700;-5.7900
1288.4070;-23.0400;-17.9400;-5.1000
1288.6060;-22.3900;-17.8900;-4.5000
1288.8050;-21.7700;-17.8600;-3.9100
1289.0040;-21.2400;-17.8100;-3.4300
1289.2040;-20.7500;-17.7700;-2.9800
1289.4030;-20.3300;-17.7400;-2.5900
1289.6020;-19.9800;-17.7000;-2.2800
1289.8010;-19.6600;-17.6700;-1.9900
1290.0000;-19.4200;-17.6200;-1.8000
1290.1990;-19.2100;-17.5800;-1.6300
1290.3980;-19.0600;-17.5500;-1.5100
1290.5970;-18.9800;-17.5200;-1.4600
1290.7970;-18.9300;-17.4900;-1.4400
1290.9960;-18.9400;-17.4300;-1.5100
1291.1950;-18.9700;-17.3900;-1.5800
1291.3940;-19.0800;-17.3500;-1.7300
1291.5930;-19.2100;-17.3000;-1.9100
1291.7920;-19.4100;-17.2700;-2.1400
1291.9910;-19.6700;-17.2100;-2.4600
1292.1900;-19.9500;-17.1800;-2.7700
1292.3890;-20.3000;-17.1300;-3.1700
1292.5890;-20.6700;-17.0800;-3.5900
1292.7880;-21.1000;-17.0500;-4.0500
1292.9870;-21.5800;-17.0000;-4.5800
1293.1860;-22.0700;-16.9700;-5.1000
1293.3850;-22.6000;-16.9200;-5.6800
1293.5840;-23.1000;-16.8700;-6.2300
1293.7830;-23.6100;-16.8400;-6.7700
1293.9820;-24.0700;-16.8000;-7.2700
1294.1810;-24.4400;-16.7900;-7.6500
1294.3810;-24.7300;-16.7400;-7.9900
1294.5800;-24.8500;-16.7000;-8.1500
1294.7790;-24.8700;-16.6700;-8.2000
1294.9780;-24.7700;-16.6400;-8.1300
1295.1770;-24.5700;-16.6200;-7.9500
1295.3760;-24.3300;-16.5900;-7.7400
1295.5750;-24.0200;-16.5600;-7.4600
1295.7740;-23.7400;-16.5200;-7.2200
1295.9740;-23.4500;-16.4900;-6.9600
1296.1730;-23.2100;-16.4700;-6.7400
1296.3720;-23.0300;-16.4400;-6.5900
1296.5710;-22.8900;-16.4100;-6.4800
1296.7700;-22.8300;-16.3800;-6.4500
1296.9690;-22.8200;-16.3600;-6.4600
1297.1680;-22.8900;-16.3400;-6.5500
1297.3670;-23.0400;-16.3100;-6.7300
1297.5660;-23.2700;-16.2900;-6.9800
1297.7660;-23.6000;-16.2600;-7.3400
1297.9650;-24.0200;-16.2400;-7.7800
1298.1640;-24.5500;-16.2100;-8.3400
1298.3630;-25.2000;-16.1900;-9.0100
1298.5620;-25.9700;-16.1800;-9.7900
1298.7610;-26.8900;-16.1500;-10.7400
1298.9600;-27.9200;-16.1400;-11.7800
1299.1590;-29.3000;-16.1200;-13.1800
1299.3580;-30.2000;-16.1100;-14.0900
1299.5580;-31.0500;-16.0900;-14.9600
1299.7570;-31.3100;-16.0800;-15.2300
1299.9560;-30.8000;-16.0800;-14.7200
1300.1550;-29.7000;-16.0700;-13.6300
1300.3540;-28.3500;-16.0700;-12.2800
1300.5530;-26.9900;-16.0400;-10.9500
1300.7520;-25.5100;-16.0400;-9.4700
1300.9510;-24.5800;-16.0400;-8.5400
1301.1500;-23.5700;-16.0400;-7.5300
1301.3500;-22.6900;-16.0500;-6.6400
1301.5490;-21.9200;-16.0400;-5.8800
1301.7480;-21.2400;-16.0400;-5.2000
1301.9470;-20.6600;-16.0400;-4.6200
1302.1460;-20.1500;-16.0400;-4.1100
1302.3450;-19.7100;-16.0500;-3.6600
1302.5440;-19.3500;-16.0500;-3.3000
1302.7430;-19.0400;-16.0600;-2.9800
1302.9430;-18.7900;-16.0500;-2.7400
1303.1420;-18.5900;-16.0600;-2.5300
1303.3410;-18.4400;-16.0800;-2.3600
1303.5400;-18.3300;-16.0800;-2.2500
1303.7390;-18.2600;-16.0900;-2.1700
1303.9380;-18.2200;-16.0900;-2.1300
1304.1370;-18.2100;-16.1000;-2.1100
1304.3360;-18.2300;-16.1200;-2.1100
1304.5350;-18.2600;-16.1300;-2.1300
1304.7350;-18.2900;-16.1500;-2.1400
1304.9340;-18.3500;-16.1500;-2.2000
1305.1330;-18.3900;-16.1700;-2.2200
1305.3320;-18.4400;-16.1900;-2.2500
1305.5310;-18.4700;-16.2100;-2.2600
1305.7300;-18.4900;-16.2300;-2.2600
1305.9290;-18.5000;-16.2400;-2.2600
1306.1280;-18.4900;-16.2600;-2.2300
1306.3270;-18.4700;-16.2800;-2.1900
1306.5270;-18.4300;-16.3000;-2.1300
1306.7260;-18.3900;-16.3400;-2.0500
1306.9250;-18.3500;-16.3500;-2.0000
1307.1240;-18.3100;-16.3800;-1.9300
1307.3230;-18.2900;-16.3900;-1.9000
1307.5220;-18.2700;-16.4200;-1.8500
1307.7210;-18.2800;-16.4600;-1.8200
1307.9200;-18.3100;-16.4700;-1.8400
1308.1200;-18.3800;-16.5100;-1.8700
1308.3190;-18.4900;-16.5200;-1.9700
1308.5180;-18.6300;-16.5500;-2.0800
1308.7170;-18.8200;-16.5700;-2.2500
1308.9160;-19.0400;-16.5900;-2.4500
1309.1150;-19.3300;-16.6200;-2.7100
1309.3140;-19.6900;-16.6300;-3.0600
1309.5130;-20.1000;-16.6700;-3.4300
1309.7120;-20.5900;-16.7000;-3.8900
1309.9120;-21.1300;-16.7100;-4.4200
