Wavelength;Intensity_Meas;Intensity_Ref;Difference_dB
1200.0000;-61.5000;-57.0400;-4.4600
1200.1990;-61.4700;-57.0100;-4.4600
1200.3980;-61.4500;-56.9700;-4.4800
1200.5970;-61.4400;-56.9600;-4.4800
1200.7970;-61.4300;-56.9200;-4.5100
1200.9960;-61.3800;-56.9000;-4.4800
1201.1950;-61.3000;-56.8600;-4.4400
1201.3940;-61.2700;-56.8000;-4.4700
1201.5930;-61.2500;-56.7800;-4.4700
1201.7920;-61.1300;-56.7400;-4.3900
1201.9910;-61.1000;-56.6800;-4.4200
1202.1900;-61.0800;-56.6500;-4.4300
1202.3890;-61.0300;-56.5600;-4.4700
1202.5890;-60.9700;-56.5200;-4.4500
1202.7880;-60.9300;-56.4800;-4.4500
1202.9870;-60.9000;-56.4300;-4.4700
1203.1860;-60.8400;-56.3600;-4.4800
1203.3850;-60.8100;-56.3000;-4.5100
1203.5840;-60.7300;-56.3000;-4.4300
1203.7830;-60.7200;-56.2500;-4.4700
1203.9820;-60.7000;-56.2000;-4.5000
1204.1810;-60.6400;-56.1500;-4.4900
1204.3810;-60.5800;-56.1100;-4.4700
1204.5800;-60.5700;-56.1100;-4.4600
1204.7790;-60.5200;-56.0600;-4.4600
1204.9780;-60.4900;-56.0100;-4.4800
1205.1770;-60.4000;-56.0000;-4.4000
1205.3760;-60.3700;-55.9800;-4.3900
1205.5750;-60.3200;-55.9600;-4.3600
1205.7740;-60.2900;-55.9300;-4.3600
1205.9740;-60.2600;-55.9100;-4.3500
1206.1730;-60.2000;-55.9200;-4.2800
1206.3720;-60.1800;-55.8800;-4.3000
1206.5710;-60.1800;-55.8700;-4.3100
1206.7700;-60.1300;-55.8300;-4.3000
1206.9690;-60.1000;-55.8100;-4.2900
1207.1680;-60.0800;-55.8300;-4.2500
1207.3670;-60.1000;-55.7800;-4.3200
1207.5660;-60.0800;-55.7300;-4.3500
1207.7660;-60.0200;-55.7100;-4.3100
1207.9650;-60.0200;-55.6900;-4.3300
1208.1640;-60.0300;-55.6500;-4.3800
1208.3630;-60.0000;-55.5800;-4.4200
1208.5620;-59.9500;-55.5500;-4.4000
1208.7610;-59.8900;-55.5300;-4.3600
1208.9600;-59.9000;-55.4700;-4.4300
1209.1590;-59.8400;-55.4200;-4.4200
1209.3580;-59.7800;-55.3500;-4.4300
1209.5580;-59.7100;-55.3200;-4.3900
1209.7570;-59.7000;-55.2900;-4.4100
1209.9560;-59.6800;-55.2200;-4.4600
1210.1550;-59.6000;-55.1700;-4.4300
1210.3540;-59.5000;-55.1200;-4.3800
1210.5530;-59.4700;-55.0900;-4.3800
1210.7520;-59.4200;-55.0300;-4.3900
1210.9510;-59.3700;-54.9700;-4.4000
1211.1500;-59.2600;-54.9500;-4.3100
1211.3500;-59.2100;-54.9100;-4.3000
1211.5490;-59.1900;-54.8600;-4.3300
1211.7480;-59.1200;-54.8200;-4.3000
1211.9470;-59.0700;-54.7900;-4.2800
1212.1460;-59.0000;-54.7700;-4.2300
1212.3450;-58.9800;-54.7300;-4.2500
1212.5440;-58.9500;-54.6800;-4.2700
1212.7430;-58.8800;-54.6700;-4.2100
1212.9430;-58.8300;-54.6400;-4.1900
1213.1420;-58.8100;-54.6200;-4.1900
1213.3410;-58.8100;-54.5800;-4.2300
1213.5400;-58.7700;-54.5600;-4.2100
1213.7390;-58.7100;-54.5500;-4.1600
1213.9380;-58.7400;-54.5200;-4.2200
1214.1370;-58.7300;-54.4700;-4.2600
1214.3360;-58.6700;-54.4200;-4.2500
1214.5350;-58.6500;-54.4100;-4.2400
1214.7350;-58.6300;-54.3900;-4.2400
1214.9340;-58.6300;-54.3300;-4.3000
1215.1330;-58.5900;-54.2800;-4.3100
1215.3320;-58.5200;-54.2400;-4.2800
1215.5310;-58.4900;-54.2100;-4.2800
1215.7300;-58.4700;-54.1500;-4.3200
1215.9290;-58.4300;-54.0900;-4.3400
1216.1280;-58.3300;-54.0500;-4.2800
1216.3270;-58.2600;-53.9900;-4.2700
1216.5270;-58.2400;-53.9400;-4.3000
1216.7260;-58.1700;-53.8800;-4.2900
1216.9250;-58.0900;-53.8200;-4.2700
1217.1240;-58.0000;-53.7900;-4.2100
1217.3230;-57.9600;-53.7100;-4.2500
1217.5220;-57.8900;-53.6500;-4.2400
1217.7210;-57.7900;-53.6100;-4.1800
1217.9200;-57.7200;-53.5600;-4.1600
1218.1200;-57.6500;-53.5200;-4.1300
1218.3190;-57.6100;-53.4500;-4.1600
1218.5180;-57.5200;-53.4300;-4.0900
1218.7170;-57.4400;-53.4000;-4.0400
1218.9160;-57.4000;-53.3500;-4.0500
1219.1150;-57.3500;-53.3100;-4.0400
1219.3140;-57.3000;-53.2700;-4.0300
1219.5130;-57.2500;-53.2500;-4.0000
1219.7120;-57.2200;-53.2200;-4.0000
1219.9120;-57.2200;-53.1700;-4.0500
1220.1110;-57.1700;-53.1600;-4.0100
1220.3100;-57.1400;-53.1200;-4.0200
1220.5090;-57.1200;-53.0900;-4.0300
1220.7080;-57.1300;-53.0400;-4.0900
1220.9070;-57.1300;-53.0000;-4.1300
1221.1060;-57.0900;-52.9700;-4.1200
1221.3050;-57.1000;-52.9200;-4.1800
1221.5040;-57.0900;-52.8600;-4.2300
1221.7040;-57.0700;-52.8100;-4.2600
1221.9030;-57.0500;-52.7700;-4.2800
1222.1020;-57.0300;-52.7100;-4.3200
1222.3010;-57.0300;-52.6400;-4.3900
1222.5000;-57.0000;-52.5700;-4.4300
1222.6990;-56.9500;-52.5100;-4.4400
1222.8980;-56.9300;-52.4500;-4.4800
1223.0970;-56.9000;-52.3900;-4.5100
1223.2970;-56.8700;-52.3000;-4.5700
1223.4960;-56.8100;-52.2300;-4.5800
1223.6950;-56.7700;-52.1700;-4.6000
1223.8940;-56.7700;-52.1000;-4.6700
1224.0930;-56.7100;-52.0400;-4.6700
1224.2920;-56.6600;-51.9700;-4.6900
1224.4910;-56.6200;-51.8900;-4.7300
1224.6900;-56.5900;-51.8400;-4.7500
1224.8890;-56.5700;-51.7600;-4.8100
1225.0890;-56.5000;-51.7200;-4.7800
1225.2880;-56.4700;-51.6500;-4.8200
1225.4870;-56.4300;-51.5800;-4.8500
1225.6860;-56.3900;-51.5300;-4.8600
1225.8850;-56.3600;-51.4900;-4.8700
1226.0840;-56.2900;-51.4400;-4.8500
1226.2830;-56.2300;-51.3800;-4.8500
1226.4820;-56.1600;-51.3200;-4.8400
1226.6810;-56.0800;-51.2900;-4.7900
1226.8810;-56.0200;-51.2400;-4.7800
1227.0800;-55.9300;-51.1900;-4.7400
1227.2790;-55.8400;-51.1300;-4.7100
1227.4780;-55.6900;-51.0800;-4.6100
1227.6770;-55.6100;-51.0300;-4.5800
1227.8760;-55.5100;-50.9700;-4.5400
1228.0750;-55.3800;-50.9200;-4.4600
1228.2740;-55.2700;-50.8600;-4.4100
1228.4740;-55.1300;-50.7900;-4.3400
1228.6730;-55.0300;-50.7300;-4.3000
1228.8720;-54.9200;-50.6700;-4.2500
1229.0710;-54.7800;-50.6100;-4.1700
1229.2700;-54.6900;-50.5200;-4.1700
1229.4690;-54.5900;-50.4400;-4.1500
1229.6680;-54.5000;-50.3800;-4.1200
1229.8670;-54.4000;-50.3000;-4.1000
1230.0660;-54.3300;-50.2300;-4.1000
1230.2660;-54.3000;-50.1400;-4.1600
1230.4650;-54.2400;-50.0500;-4.1900
1230.6640;-54.2000;-49.9900;-4.2100
1230.8630;-54.2100;-49.9200;-4.2900
1231.0620;-54.2300;-49.8500;-4.3800
1231.2610;-54.2700;-49.7800;-4.4900
1231.4600;-54.2900;-49.7200;-4.5700
1231.6590;-54.3500;-49.6600;-4.6900
1231.8580;-54.4200;-49.5900;-4.8300
1232.0580;-54.5000;-49.5400;-4.9600
1232.2570;-54.5700;-49.4700;-5.1000
1232.4560;-54.6500;-49.4200;-5.2300
1232.6550;-54.7300;-49.3600;-5.3700
1232.8540;-54.7900;-49.2900;-5.5000
1233.0530;-54.8300;-49.2600;-5.5700
1233.2520;-54.8700;-49.1900;-5.6800
1233.4510;-54.8800;-49.1300;-5.7500
1233.6500;-54.8600;-49.0800;-5.7800
1233.8500;-54.8000;-49.0100;-5.7900
1234.0490;-54.7300;-48.9700;-5.7600
1234.2480;-54.6500;-48.8900;-5.7600
1234.4470;-54.4900;-48.8300;-5.6600
1234.6460;-54.3400;-48.7700;-5.5700
1234.8450;-54.1900;-48.7000;-5.4900
1235.0440;-53.9900;-48.6300;-5.3600
1235.2430;-53.7900;-48.5500;-5.2400
1235.4430;-53.5800;-48.4800;-5.1000
1235.6420;-53.4000;-48.3900;-5.0100
1235.8410;-53.1900;-48.3000;-4.8900
1236.0400;-52.9900;-48.2300;-4.7600
1236.2390;-52.8100;-48.1300;-4.6800
1236.4380;-52.6500;-48.0600;-4.5900
1236.6370;-52.5000;-47.9700;-4.5300
1236.8360;-52.3400;-47.8700;-4.4700
1237.0350;-52.2200;-47.7900;-4.4300
1237.2350;-52.1300;-47.7000;-4.4300
1237.4340;-52.0300;-47.6200;-4.4100
1237.6330;-51.9500;-47.5300;-4.4200
1237.8320;-51.9000;-47.4600;-4.4400
1238.0310;-51.8500;-47.3700;-4.4800
1238.2300;-51.8200;-47.2900;-4.5300
1238.4290;-51.7800;-47.2200;-4.5600
1238.6280;-51.7800;-47.1400;-4.6400
1238.8270;-51.7600;-47.0600;-4.7000
1239.0270;-51.7300;-46.9800;-4.7500
1239.2260;-51.7100;-46.9000;-4.8100
1239.4250;-51.6900;-46.8300;-4.8600
1239.6240;-51.6600;-46.7400;-4.9200
1239.8230;-51.5900;-46.6600;-4.9300
1240.0220;-51.5300;-46.5700;-4.9600
1240.2210;-51.4800;-46.4800;-5.0000
1240.4200;-51.3700;-46.4000;-4.9700
1240.6200;-51.2600;-46.3000;-4.9600
1240.8190;-51.1400;-46.2000;-4.9400
1241.0180;-51.0000;-46.0800;-4.9200
1241.2170;-50.8600;-45.9700;-4.8900
1241.4160;-50.7000;-45.8400;-4.8600
1241.6150;-50.5600;-45.7400;-4.8200
1241.8140;-50.4100;-45.6300;-4.7800
1242.0130;-50.2500;-45.5000;-4.7500
1242.2120;-50.1100;-45.3900;-4.7200
1242.4120;-49.9900;-45.2600;-4.7300
1242.6110;-49.8700;-45.1300;-4.7400
1242.8100;-49.7400;-45.0100;-4.7300
1243.0090;-49.6500;-44.8600;-4.7900
1243.2080;-49.5800;-44.7500;-4.8300
1243.4070;-49.4900;-44.6100;-4.8800
1243.6060;-49.4300;-44.4700;-4.9600
1243.8050;-49.3800;-44.3600;-5.0200
1244.0040;-49.3400;-44.2200;-5.1200
1244.2040;-49.3000;-44.1000;-5.2000
1244.4030;-49.2800;-43.9700;-5.3100
1244.6020;-49.2800;-43.8300;-5.4500
1244.8010;-49.2600;-43.7200;-5.5400
1245.0000;-49.2500;-43.5900;-5.6600
1245.1990;-49.2600;-43.4700;-5.7900
1245.3980;-49.2600;-43.3300;-5.9300
1245.5970;-49.2600;-43.2000;-6.0600
1245.7970;-49.2400;-43.0700;-6.1700
1245.9960;-49.2400;-42.9300;-6.3100
1246.1950;-49.2500;-42.8000;-6.4500
1246.3940;-49.2200;-42.6500;-6.5700
1246.5930;-49.2200;-42.5000;-6.7200
1246.7920;-49.1800;-42.3700;-6.8100
1246.9910;-49.1400;-42.2000;-6.9400
1247.1900;-49.0800;-42.0600;-7.0200
1247.3890;-49.0100;-41.9100;-7.1000
1247.5890;-48.9400;-41.7400;-7.2000
1247.7880;-48.8100;-41.6000;-7.2100
1247.9870;-48.6900;-41.4300;-7.2600
1248.1860;-48.5500;-41.2800;-7.2700
1248.3850;-48.3900;-41.1100;-7.2800
1248.5840;-48.2200;-40.9400;-7.2800
1248.7830;-48.0400;-40.8000;-7.2400
1248.9820;-47.8600;-40.6400;-7.2200
1249.1810;-47.6600;-40.4900;-7.1700
1249.3810;-47.4700;-40.3300;-7.1400
1249.5800;-47.2900;-40.1700;-7.1200
1249.7790;-47.0900;-40.0300;-7.0600
1249.9780;-46.9000;-39.8600;-7.0400
1250.1770;-46.7200;-39.7200;-7.0000
1250.3760;-46.5400;-39.5700;-6.9700
1250.5750;-46.3600;-39.4100;-6.9500
1250.7740;-46.1700;-39.2700;-6.9000
1250.9740;-46.0200;-39.1200;-6.9000
1251.1730;-45.8200;-38.9800;-6.8400
1251.3720;-45.6000;-38.8100;-6.7900
1251.5710;-45.4400;-38.6600;-6.7800
1251.7700;-45.2100;-38.5100;-6.7000
1251.9690;-44.9700;-38.3400;-6.6300
1252.1680;-44.6900;-38.2000;-6.4900
1252.3670;-44.4100;-38.0200;-6.3900
1252.5660;-44.1000;-37.8700;-6.2300
1252.7660;-43.7500;-37.7000;-6.0500
1252.9650;-43.4100;-37.5400;-5.8700
1253.1640;-43.0200;-37.3800;-5.6400
1253.3630;-42.6300;-37.1900;-5.4400
1253.5620;-42.2100;-37.0300;-5.1800
1253.7610;-41.8100;-36.8600;-4.9500
1253.9600;-41.4200;-36.7000;-4.7200
1254.1590;-41.0100;-36.5500;-4.4600
1254.3580;-40.6200;-36.3700;-4.2500
1254.5580;-40.2500;-36.2200;-4.0300
1254.7570;-39.8800;-36.0500;-3.8300
1254.9560;-39.5400;-35.8700;-3.6700
1255.1550;-39.2200;-35.7500;-3.4700
1255.3540;-38.9300;-35.5900;-3.3400
1255.5530;-38.6400;-35.4700;-3.1700
1255.7520;-38.3900;-35.3100;-3.0800
1255.9510;-38.1500;-35.1600;-2.9900
1256.1500;-37.9300;-35.0200;-2.9100
1256.3500;-37.7500;-34.8700;-2.8800
1256.5490;-37.5700;-34.7500;-2.8200
1256.7480;-37.4100;-34.6000;-2.8100
1256.9470;-37.2700;-34.4600;-2.8100
1257.1460;-37.1400;-34.3100;-2.8300
1257.3450;-37.0500;-34.1600;-2.8900
1257.5440;-36.9600;-34.0300;-2.9300
1257.7430;-36.8900;-33.8700;-3.0200
1257.9430;-36.8300;-33.7300;-3.1000
1258.1420;-36.7900;-33.5700;-3.2200
1258.3410;-36.7600;-33.4200;-3.3400
1258.5400;-36.7300;-33.2800;-3.4500
1258.7390;-36.7200;-33.1100;-3.6100
1258.9380;-36.7000;-32.9600;-3.7400
1259.1370;-36.6900;-32.8000;-3.8900
1259.3360;-36.7000;-32.6400;-4.0600
1259.5350;-36.7000;-32.4900;-4.2100
1259.7350;-36.7100;-32.3200;-4.3900
1259.9340;-36.7100;-32.1700;-4.5400
1260.1330;-36.7300;-32.0200;-4.7100
1260.3320;-36.7500;-31.8600;-4.8900
1260.5310;-36.7700;-31.7200;-5.0500
1260.7300;-36.8000;-31.5600;-5.2400
1260.9290;-36.8000;-31.4100;-5.3900
1261.1280;-36.8000;-31.2500;-5.5500
1261.3270;-36.7900;-31.1100;-5.6800
1261.5270;-36.7600;-30.9800;-5.7800
1261.7260;-36.7000;-30.8300;-5.8700
1261.9250;-36.5800;-30.6900;-5.8900
1262.1240;-36.4200;-30.5400;-5.8800
1262.3230;-36.2100;-30.4000;-5.8100
1262.5220;-35.8900;-30.2700;-5.6200
1262.7210;-35.6100;-30.1300;-5.4800
1262.9200;-35.2200;-30.0000;-5.2200
1263.1200;-34.8100;-29.8500;-4.9600
1263.3190;-34.3400;-29.7100;-4.6300
1263.5180;-33.8700;-29.5800;-4.2900
1263.7170;-33.3800;-29.4400;-3.9400
1263.9160;-32.8700;-29.3000;-3.5700
1264.1150;-32.3900;-29.1500;-3.2400
1264.3140;-31.9000;-29.0100;-2.8900
1264.5130;-31.4500;-28.8800;-2.5700
1264.7120;-31.0000;-28.7300;-2.2700
1264.9120;-30.5900;-28.6100;-1.9800
1265.1110;-30.2200;-28.4600;-1.7600
1265.3100;-29.8600;-28.3200;-1.5400
1265.5090;-29.5600;-28.1900;-1.3700
1265.7080;-29.2900;-28.0500;-1.2400
1265.9070;-29.0500;-27.9300;-1.1200
1266.1060;-28.8600;-27.7800;-1.0800
1266.3050;-28.6900;-27.6600;-1.0300
1266.5040;-28.5900;-27.5400;-1.0500
1266.7040;-28.5000;-27.4100;-1.0900
1266.9030;-28.4500;-27.2900;-1.1600
1267.1020;-28.4500;-27.1600;-1.2900
1267.3010;-28.4700;-27.0400;-1.4300
1267.5000;-28.5300;-26.9300;-1.6000
1267.6990;-28.6100;-26.8000;-1.8100
1267.8980;-28.7100;-26.6900;-2.0200
1268.0970;-28.8500;-26.5700;-2.2800
1268.2970;-28.9800;-26.4600;-2.5200
1268.4960;-29.1400;-26.3500;-2.7900
1268.6950;-29.2800;-26.2300;-3.0500
1268.8940;-29.4300;-26.1200;-3.3100
1269.0930;-29.5800;-25.9700;-3.6100
1269.2920;-29.7100;-25.8800;-3.8300
1269.4910;-29.8400;-25.7600;-4.0800
1269.6900;-29.9400;-25.6600;-4.2800
1269.8890;-30.0300;-25.5300;-4.5000
1270.0890;-30.1300;-25.4100;-4.7200
1270.2880;-30.2100;-25.3100;-4.9000
1270.4870;-30.3100;-25.1900;-5.1200
1270.6860;-30.4100;-25.0800;-5.3300
1270.8850;-30.5400;-24.9600;-5.5800
1271.0840;-30.7100;-24.8500;-5.8600
1271.2830;-30.9100;-24.7400;-6.1700
1271.4820;-31.1800;-24.6200;-6.5600
1271.6810;-31.5100;-24.5200;-6.9900
1271.8810;-31.9300;-24.4100;-7.5200
1272.0800;-32.4500;-24.3000;-8.1500
1272.2790;-33.0700;-24.2000;-8.8700
1272.4780;-33.8300;-24.0800;-9.7500
1272.6770;-34.7100;-23.9900;-10.7200
1272.8760;-35.7400;-23.8700;-11.8700
1273.0750;-36.8800;-23.7700;-13.1100
1273.2740;-37.9500;-23.6700;-14.2800
1273.4740;-38.8400;-23.5600;-15.2800
1273.6730;-38.7300;-23.4600;-15.2700
1273.8720;-37.8800;-23.3500;-14.5300
1274.0710;-36.4600;-23.2400;-13.2200
1274.2700;-34.6500;-23.1400;-11.5100
1274.4690;-33.3600;-23.0300;-10.3300
1274.6680;-31.9700;-22.9400;-9.0300
1274.8670;-30.7000;-22.8300;-7.8700
1275.0660;-29.5700;-22.7300;-6.8400
1275.2660;-28.5900;-22.6300;-5.9600
1275.4650;-27.7000;-22.5300;-5.1700
1275.6640;-26.9300;-22.4400;-4.4900
1275.8630;-26.2300;-22.3400;-3.8900
1276.0620;-25.5400;-22.2500;-3.2900
1276.2610;-25.1100;-22.1600;-2.9500
1276.4600;-24.6600;-22.0700;-2.5900
1276.6590;-24.2800;-21.9900;-2.2900
1276.8580;-23.9500;-21.8900;-2.0600
1277.0580;-23.7100;-21.8200;-1.8900
1277.2570;-23.5100;-21.7300;-1.7800
1277.4560;-23.3600;-21.6500;-1.7100
1277.6550;-23.2800;-21.5900;-1.6900
1277.8540;-23.2300;-21.5000;-1.7300
1278.0530;-23.2400;-21.4300;-1.8100
1278.2520;-23.2700;-21.3400;-1.9300
1278.4510;-23.3400;-21.2700;-2.0700
1278.6500;-23.4500;-21.2000;-2.2500
1278.8500;-23.5600;-21.1100;-2.4500
1279.0490;-23.6900;-21.0400;-2.6500
1279.2480;-23.7900;-20.9500;-2.8400
1279.4470;-23.8900;-20.8800;-3.0100
1279.6460;-23.9500;-20.8000;-3.1500
1279.8450;-23.9700;-20.7100;-3.2600
1280.0440;-23.9500;-20.6500;-3.3000
1280.2430;-23.8400;-20.5500;-3.2900
1280.4430;-23.6800;-20.4700;-3.2100
1280.6420;-23.4700;-20.3900;-3.0800
1280.8410;-23.2100;-20.3000;-2.9100
1281.0400;-22.9200;-20.2400;-2.6800
1281.2390;-22.6000;-20.1500;-2.4500
1281.4380;-22.3000;-20.0700;-2.2300
1281.6370;-21.9900;-19.9900;-2.0000
1281.8360;-21.7000;-19.9100;-1.7900
1282.0350;-21.4500;-19.8400;-1.6100
1282.2350;-21.2200;-19.7500;-1.4700
1282.4340;-21.0400;-19.6900;-1.3500
1282.6330;-20.9100;-19.6200;-1.2900
1282.8320;-20.8100;-19.5400;-1.2700
1283.0310;-20.7900;-19.4900;-1.3000
1283.2300;-20.8000;-19.4100;-1.3900
1283.4290;-20.8900;-19.3500;-1.5400
1283.6280;-21.0300;-19.2700;-1.7600
1283.8270;-21.2500;-19.2000;-2.0500
1284.0270;-21.5500;-19.1500;-2.4000
1284.2260;-21.9200;-19.0800;-2.8400
1284.4250;-22.3900;-19.0300;-3.3600
1284.6240;-22.9500;-18.9500;-4.0000
1284.8230;-23.6300;-18.8900;-4.7400
1285.0220;-24.4500;-18.8400;-5.6100
1285.2210;-25.4200;-18.7700;-6.6500
1285.4200;-26.5800;-18.7200;-7.8600
1285.6200;-27.9200;-18.6400;-9.2800
1285.8190;-29.8300;-18.5900;-11.2400
1286.0180;-31.2200;-18.5300;-12.6900
1286.2170;-32.7500;-18.4700;-14.2800
1286.4160;-33.4100;-18.4200;-14.9900
1286.6150;-32.6800;-18.3600;-14.3200
1286.8140;-31.0500;-18.3100;-12.7400
1287.0130;-29.2300;-18.2600;-10.9700
1287.2120;-27.5800;-18.2000;-9.3800
1287.4120;-25.9000;-18.1700;-7.7300
1287.6110;-24.9000;-18.1100;-6.7900
1287.8100;-23.8500;-18.0700;-5.7800
1288.0090;-22.9400;-18.0200;-4.9200
1288.2080;-22.1800;-17.9700;-4.2100
1288.4070;-21.5100;-17.9400;-3.5700
1288.6060;-20.9400;-17.8900;-3.0500
1288.8050;-20.4600;-17.8600;-2.6000
1289.0040;-20.0600;-17.8100;-2.2500
1289.2040;-19.7500;-17.7700;-1.9800
1289.4030;-19.4800;-17.7400;-1.7400
1289.6020;-19.2900;-17.7000;-1.5900
1289.8010;-19.1500;-17.6700;-1.4800
1290.0000;-19.0700;-17.6200;-1.4500
1290.1990;-19.0500;-17.5800;-1.4700
1290.3980;-19.0700;-17.5500;-1.5200
1290.5970;-19.1600;-17.5200;-1.6400
1290.7970;-19.2900;-17.4900;-1.8000
1290.9960;-19.4600;-17.4300;-2.0300
1291.1950;-19.7000;-17.3900;-2.3100
1291.3940;-19.9800;-17.3500;-2.6300
1291.5930;-20.3300;-17.3000;-3.0300
1291.7920;-20.7200;-17.2700;-3.4500
1291.9910;-21.1900;-17.2100;-3.9800
1292.1900;-21.7400;-17.1800;-4.5600
1292.3890;-22.3400;-17.1300;-5.2100
1292.5890;-23.0300;-17.0800;-5.9500
1292.7880;-23.8100;-17.0500;-6.7600
1292.9870;-24.7100;-17.0000;-7.7100
1293.1860;-25.7100;-16.9700;-8.7400
1293.3850;-26.8400;-16.9200;-9.9200
1293.5840;-28.1100;-16.8700;-11.2400
1293.7830;-29.7800;-16.8400;-12.9400
1293.9820;-30.9100;-16.8000;-14.1100
1294.1810;-32.0600;-16.7900;-15.2700
1294.3810;-32.6600;-16.7400;-15.9200
1294.5800;-32.3700;-16.7000;-15.6700
1294.7790;-31.4200;-16.6700;-14.7500
1294.9780;-30.1700;-16.6400;-13.5300
1295.1770;-28.8700;-16.6200;-12.2500
1295.3760;-27.6900;-16.5900;-11.1000
1295.5750;-26.6200;-16.5600;-10.0600
1295.7740;-25.5700;-16.5200;-9.0500
1295.9740;-24.9200;-16.4900;-8.4300
1296.1730;-24.2600;-16.4700;-7.7900
1296.3720;-23.7200;-16.4400;-7.2800
1296.5710;-23.2400;-16.4100;-6.8300
1296.7700;-22.8900;-16.3800;-6.5100
1296.9690;-22.6100;-16.3600;-6.2500
1297.1680;-22.4200;-16.3400;-6.0800
1297.3670;-22.3200;-16.3100;-6.0100
1297.5660;-22.2900;-16.2900;-6.0000
1297.7660;-22.3600;-16.2600;-6.1000
1297.9650;-22.5000;-16.2400;-6.2600
1298.1640;-22.7400;-16.2100;-6.5300
1298.3630;-23.0700;-16.1900;-6.8800
1298.5620;-23.4800;-16.1800;-7.3000
1298.7610;-24.0300;-16.1500;-7.8800
1298.9600;-24.6600;-16.1400;-8.5200
1299.1590;-25.4200;-16.1200;-9.3000
1299.3580;-26.2800;-16.1100;-10.1700
1299.5580;-27.2100;-16.0900;-11.1200
1299.7570;-28.3700;-16.0800;-12.2900
1299.9560;-29.0000;-16.0800;-12.9200
1300.1550;-29.4300;-16.0700;-13.3600
1300.3540;-29.2900;-16.0700;-13.2200
1300.5530;-28.5700;-16.0400;-12.5300
1300.7520;-27.4800;-16.0400;-11.4400
1300.9510;-26.2600;-16.0400;-10.2200
1301.1500;-24.8600;-16.0400;-8.8200
1301.3500;-23.9300;-16.0500;-7.8800
1301.5490;-22.9300;-16.0400;-6.8900
1301.7480;-22.0100;-16.0400;-5.9700
1301.9470;-21.2000;-16.0400;-5.1600
1302.1460;-20.5000;-16.0400;-4.4600
1302.3450;-19.8600;-16.0500;-3.8100
1302.5440;-19.3400;-16.0500;-3.2900
1302.7430;-18.8600;-16.0600;-2.8000
1302.9430;-18.4600;-16.0500;-2.4100
1303.1420;-18.1300;-16.0600;-2.0700
1303.3410;-17.8400;-16.0800;-1.7600
1303.5400;-17.6400;-16.0800;-1.5600
1303.7390;-17.4600;-16.0900;-1.3700
1303.9380;-17.3500;-16.0900;-1.2600
1304.1370;-17.2800;-16.1000;-1.1800
1304.3360;-17.2400;-16.1200;-1.1200
1304.5350;-17.2500;-16.1300;-1.1200
1304.7350;-17.2800;-16.1500;-1.1300
1304.9340;-17.3500;-16.1500;-1.2000
1305.1330;-17.4200;-16.1700;-1.2500
1305.3320;-17.5200;-16.1900;-1.3300
1305.5310;-17.6300;-16.2100;-1.4200
1305.7300;-17.7300;-16.2300;-1.5000
1305.9290;-17.8500;-16.2400;-1.6100
1306.1280;-17.9300;-16.2600;-1.6700
1306.3270;-18.0100;-16.2800;-1.7300
1306.5270;-18.0700;-16.3000;-1.7700
1306.7260;-18.1000;-16.3400;-1.7600
1306.9250;-18.1300;-16.3500;-1.7800
1307.1240;-18.1300;-16.3800;-1.7500
1307.3230;-18.1100;-16.3900;-1.7200
1307.5220;-18.0900;-16.4200;-1.6700
1307.7210;-18.0600;-16.4600;-1.6000
1307.9200;-18.0400;-16.4700;-1.5700
1308.1200;-18.0200;-16.5100;-1.5100
1308.3190;-18.0300;-16.5200;-1.5100
1308.5180;-18.0600;-16.5500;-1.5100
1308.7170;-18.1100;-16.5700;-1.5400
1308.9160;-18.2100;-16.5900;-1.6200
1309.1150;-18.3300;-16.6200;-1.7100
1309.3140;-18.5100;-16.6300;-1.8800
1309.5130;-18.7300;-16.6700;-2.0600
1309.7120;-19.0000;-16.7000;-2.3000
1309.9120;-19.3300;-16.7100;-2.6200
