Wavelength;Intensity_Meas;Intensity_Ref;Difference_dB
1200.0000;-61.2700;-57.0400;-4.2300
1200.1990;-61.2500;-57.0100;-4.2400
1200.3980;-61.2200;-56.9700;-4.2500
1200.5970;-61.1900;-56.9600;-4.2300
1200.7970;-61.1800;-56.9200;-4.2600
1200.9960;-61.1300;-56.9000;-4.2300
1201.1950;-61.0600;-56.8600;-4.2000
1201.3940;-61.0300;-56.8000;-4.2300
1201.5930;-60.9600;-56.7800;-4.1800
1201.7920;-60.9100;-56.7400;-4.1700
1201.9910;-60.8300;-56.6800;-4.1500
1202.1900;-60.7900;-56.6500;-4.1400
1202.3890;-60.7000;-56.5600;-4.1400
1202.5890;-60.6400;-56.5200;-4.1200
1202.7880;-60.6000;-56.4800;-4.1200
1202.9870;-60.5300;-56.4300;-4.1000
1203.1860;-60.4600;-56.3600;-4.1000
1203.3850;-60.4100;-56.3000;-4.1100
1203.5840;-60.3500;-56.3000;-4.0500
1203.7830;-60.3300;-56.2500;-4.0800
1203.9820;-60.3000;-56.2000;-4.1000
1204.1810;-60.2300;-56.1500;-4.0800
1204.3810;-60.1800;-56.1100;-4.0700
1204.5800;-60.1600;-56.1100;-4.0500
1204.7790;-60.1500;-56.0600;-4.0900
1204.9780;-60.1100;-56.0100;-4.1000
1205.1770;-60.1000;-56.0000;-4.1000
1205.3760;-60.0600;-55.9800;-4.0800
1205.5750;-60.0500;-55.9600;-4.0900
1205.7740;-60.0500;-55.9300;-4.1200
1205.9740;-60.0400;-55.9100;-4.1300
1206.1730;-59.9800;-55.9200;-4.0600
1206.3720;-60.0300;-55.8800;-4.1500
1206.5710;-60.0400;-55.8700;-4.1700
1206.7700;-60.0200;-55.8300;-4.1900
1206.9690;-59.9800;-55.8100;-4.1700
1207.1680;-60.0000;-55.8300;-4.1700
1207.3670;-60.0500;-55.7800;-4.2700
1207.5660;-60.0300;-55.7300;-4.3000
1207.7660;-60.0100;-55.7100;-4.3000
1207.9650;-60.0200;-55.6900;-4.3300
1208.1640;-60.0100;-55.6500;-4.3600
1208.3630;-60.0000;-55.5800;-4.4200
1208.5620;-59.9700;-55.5500;-4.4200
1208.7610;-59.9300;-55.5300;-4.4000
1208.9600;-59.9300;-55.4700;-4.4600
1209.1590;-59.9000;-55.4200;-4.4800
1209.3580;-59.8500;-55.3500;-4.5000
1209.5580;-59.7800;-55.3200;-4.4600
1209.7570;-59.7300;-55.2900;-4.4400
1209.9560;-59.7000;-55.2200;-4.4800
1210.1550;-59.6000;-55.1700;-4.4300
1210.3540;-59.5400;-55.1200;-4.4200
1210.5530;-59.4800;-55.0900;-4.3900
1210.7520;-59.4300;-55.0300;-4.4000
1210.9510;-59.3400;-54.9700;-4.3700
1211.1500;-59.2300;-54.9500;-4.2800
1211.3500;-59.1900;-54.9100;-4.2800
1211.5490;-59.1400;-54.8600;-4.2800
1211.7480;-59.0700;-54.8200;-4.2500
1211.9470;-58.9800;-54.7900;-4.1900
1212.1460;-58.9100;-54.7700;-4.1400
1212.3450;-58.8700;-54.7300;-4.1400
1212.5440;-58.8200;-54.6800;-4.1400
1212.7430;-58.7500;-54.6700;-4.0800
1212.9430;-58.6800;-54.6400;-4.0400
1213.1420;-58.6600;-54.6200;-4.0400
1213.3410;-58.6400;-54.5800;-4.0600
1213.5400;-58.5700;-54.5600;-4.0100
1213.7390;-58.5000;-54.5500;-3.9500
1213.9380;-58.4900;-54.5200;-3.9700
1214.1370;-58.4600;-54.4700;-3.9900
1214.3360;-58.4100;-54.4200;-3.9900
1214.5350;-58.3500;-54.4100;-3.9400
1214.7350;-58.3200;-54.3900;-3.9300
1214.9340;-58.3000;-54.3300;-3.9700
1215.1330;-58.2400;-54.2800;-3.9600
1215.3320;-58.1700;-54.2400;-3.9300
1215.5310;-58.1300;-54.2100;-3.9200
1215.7300;-58.1000;-54.1500;-3.9500
1215.9290;-58.0500;-54.0900;-3.9600
1216.1280;-57.9600;-54.0500;-3.9100
1216.3270;-57.9000;-53.9900;-3.9100
1216.5270;-57.8700;-53.9400;-3.9300
1216.7260;-57.8100;-53.8800;-3.9300
1216.9250;-57.7200;-53.8200;-3.9000
1217.1240;-57.6600;-53.7900;-3.8700
1217.3230;-57.6200;-53.7100;-3.9100
1217.5220;-57.5700;-53.6500;-3.9200
1217.7210;-57.4900;-53.6100;-3.8800
1217.9200;-57.4200;-53.5600;-3.8600
1218.1200;-57.3800;-53.5200;-3.8600
1218.3190;-57.3500;-53.4500;-3.9000
1218.5180;-57.2900;-53.4300;-3.8600
1218.7170;-57.2300;-53.4000;-3.8300
1218.9160;-57.2100;-53.3500;-3.8600
1219.1150;-57.1900;-53.3100;-3.8800
1219.3140;-57.1600;-53.2700;-3.8900
1219.5130;-57.1200;-53.2500;-3.8700
1219.7120;-57.1300;-53.2200;-3.9100
1219.9120;-57.1400;-53.1700;-3.9700
1220.1110;-57.1200;-53.1600;-3.9600
1220.3100;-57.1300;-53.1200;-4.0100
1220.5090;-57.1400;-53.0900;-4.0500
1220.7080;-57.1800;-53.0400;-4.1400
1220.9070;-57.2000;-53.0000;-4.2000
1221.1060;-57.2100;-52.9700;-4.2400
1221.3050;-57.2600;-52.9200;-4.3400
1221.5040;-57.2900;-52.8600;-4.4300
1221.7040;-57.3200;-52.8100;-4.5100
1221.9030;-57.3400;-52.7700;-4.5700
1222.1020;-57.3500;-52.7100;-4.6400
1222.3010;-57.4200;-52.6400;-4.7800
1222.5000;-57.4100;-52.5700;-4.8400
1222.6990;-57.4100;-52.5100;-4.9000
1222.8980;-57.4200;-52.4500;-4.9700
1223.0970;-57.4100;-52.3900;-5.0200
1223.2970;-57.4100;-52.3000;-5.1100
1223.4960;-57.3600;-52.2300;-5.1300
1223.6950;-57.3200;-52.1700;-5.1500
1223.8940;-57.3000;-52.1000;-5.2000
1224.0930;-57.2500;-52.0400;-5.2100
1224.2920;-57.1900;-51.9700;-5.2200
1224.4910;-57.1300;-51.8900;-5.2400
1224.6900;-57.1000;-51.8400;-5.2600
1224.8890;-57.0500;-51.7600;-5.2900
1225.0890;-56.9900;-51.7200;-5.2700
1225.2880;-56.9300;-51.6500;-5.2800
1225.4870;-56.9000;-51.5800;-5.3200
1225.6860;-56.8600;-51.5300;-5.3300
1225.8850;-56.8100;-51.4900;-5.3200
1226.0840;-56.7500;-51.4400;-5.3100
1226.2830;-56.7400;-51.3800;-5.3600
1226.4820;-56.6800;-51.3200;-5.3600
1226.6810;-56.6000;-51.2900;-5.3100
1226.8810;-56.5600;-51.2400;-5.3200
1227.0800;-56.4800;-51.1900;-5.2900
1227.2790;-56.4300;-51.1300;-5.3000
1227.4780;-56.3100;-51.0800;-5.2300
1227.6770;-56.2000;-51.0300;-5.1700
1227.8760;-56.1000;-50.9700;-5.1300
1228.0750;-55.9600;-50.9200;-5.0400
1228.2740;-55.8000;-50.8600;-4.9400
1228.4740;-55.5700;-50.7900;-4.7800
1228.6730;-55.4600;-50.7300;-4.7300
1228.8720;-55.2700;-50.6700;-4.6000
1229.0710;-55.0500;-50.6100;-4.4400
1229.2700;-54.8600;-50.5200;-4.3400
1229.4690;-54.6700;-50.4400;-4.2300
1229.6680;-54.4900;-50.3800;-4.1100
1229.8670;-54.2700;-50.3000;-3.9700
1230.0660;-54.0900;-50.2300;-3.8600
1230.2660;-53.9400;-50.1400;-3.8000
1230.4650;-53.7700;-50.0500;-3.7200
1230.6640;-53.6300;-49.9900;-3.6400
1230.8630;-53.5100;-49.9200;-3.5900
1231.0620;-53.4300;-49.8500;-3.5800
1231.2610;-53.3700;-49.7800;-3.5900
1231.4600;-53.3100;-49.7200;-3.5900
1231.6590;-53.2900;-49.6600;-3.6300
1231.8580;-53.2900;-49.5900;-3.7000
1232.0580;-53.3000;-49.5400;-3.7600
1232.2570;-53.3200;-49.4700;-3.8500
1232.4560;-53.3700;-49.4200;-3.9500
1232.6550;-53.4500;-49.3600;-4.0900
1232.8540;-53.5000;-49.2900;-4.2100
1233.0530;-53.5700;-49.2600;-4.3100
1233.2520;-53.6600;-49.1900;-4.4700
1233.4510;-53.7400;-49.1300;-4.6100
1233.6500;-53.8300;-49.0800;-4.7500
1233.8500;-53.8700;-49.0100;-4.8600
1234.0490;-53.9500;-48.9700;-4.9800
1234.2480;-53.9900;-48.8900;-5.1000
1234.4470;-53.9800;-48.8300;-5.1500
1234.6460;-53.9800;-48.7700;-5.2100
1234.8450;-53.9600;-48.7000;-5.2600
1235.0440;-53.8900;-48.6300;-5.2600
1235.2430;-53.7800;-48.5500;-5.2300
1235.4430;-53.6700;-48.4800;-5.1900
1235.6420;-53.5600;-48.3900;-5.1700
1235.8410;-53.3900;-48.3000;-5.0900
1236.0400;-53.2100;-48.2300;-4.9800
1236.2390;-53.0300;-48.1300;-4.9000
1236.4380;-52.8500;-48.0600;-4.7900
1236.6370;-52.6800;-47.9700;-4.7100
1236.8360;-52.4800;-47.8700;-4.6100
1237.0350;-52.3200;-47.7900;-4.5300
1237.2350;-52.1700;-47.7000;-4.4700
1237.4340;-52.0000;-47.6200;-4.3800
1237.6330;-51.8800;-47.5300;-4.3500
1237.8320;-51.7700;-47.4600;-4.3100
1238.0310;-51.6800;-47.3700;-4.3100
1238.2300;-51.5800;-47.2900;-4.2900
1238.4290;-51.4900;-47.2200;-4.2700
1238.6280;-51.4600;-47.1400;-4.3200
1238.8270;-51.4100;-47.0600;-4.3500
1239.0270;-51.3700;-46.9800;-4.3900
1239.2260;-51.3200;-46.9000;-4.4200
1239.4250;-51.3000;-46.8300;-4.4700
1239.6240;-51.2800;-46.7400;-4.5400
1239.8230;-51.2200;-46.6600;-4.5600
1240.0220;-51.1900;-46.5700;-4.6200
1240.2210;-51.1400;-46.4800;-4.6600
1240.4200;-51.0700;-46.4000;-4.6700
1240.6200;-51.0000;-46.3000;-4.7000
1240.8190;-50.9100;-46.2000;-4.7100
1241.0180;-50.8100;-46.0800;-4.7300
1241.2170;-50.6700;-45.9700;-4.7000
1241.4160;-50.5300;-45.8400;-4.6900
1241.6150;-50.3900;-45.7400;-4.6500
1241.8140;-50.2300;-45.6300;-4.6000
1242.0130;-50.0600;-45.5000;-4.5600
1242.2120;-49.8800;-45.3900;-4.4900
1242.4120;-49.7200;-45.2600;-4.4600
1242.6110;-49.5500;-45.1300;-4.4200
1242.8100;-49.3600;-45.0100;-4.3500
1243.0090;-49.2000;-44.8600;-4.3400
1243.2080;-49.0400;-44.7500;-4.2900
1243.4070;-48.8800;-44.6100;-4.2700
1243.6060;-48.7300;-44.4700;-4.2600
1243.8050;-48.6000;-44.3600;-4.2400
1244.0040;-48.4900;-44.2200;-4.2700
1244.2040;-48.3600;-44.1000;-4.2600
1244.4030;-48.2700;-43.9700;-4.3000
1244.6020;-48.2000;-43.8300;-4.3700
1244.8010;-48.1200;-43.7200;-4.4000
1245.0000;-48.0700;-43.5900;-4.4800
1245.1990;-48.0200;-43.4700;-4.5500
1245.3980;-47.9800;-43.3300;-4.6500
1245.5970;-47.9400;-43.2000;-4.7400
1245.7970;-47.8900;-43.0700;-4.8200
1245.9960;-47.8500;-42.9300;-4.9200
1246.1950;-47.7900;-42.8000;-4.9900
1246.3940;-47.7100;-42.6500;-5.0600
1246.5930;-47.6300;-42.5000;-5.1300
1246.7920;-47.5200;-42.3700;-5.1500
1246.9910;-47.3900;-42.2000;-5.1900
1247.1900;-47.2300;-42.0600;-5.1700
1247.3890;-47.0500;-41.9100;-5.1400
1247.5890;-46.8500;-41.7400;-5.1100
1247.7880;-46.6100;-41.6000;-5.0100
1247.9870;-46.3700;-41.4300;-4.9400
1248.1860;-46.1100;-41.2800;-4.8300
1248.3850;-45.8000;-41.1100;-4.6900
1248.5840;-45.5500;-40.9400;-4.6100
1248.7830;-45.2800;-40.8000;-4.4800
1248.9820;-45.0300;-40.6400;-4.3900
1249.1810;-44.7500;-40.4900;-4.2600
1249.3810;-44.5000;-40.3300;-4.1700
1249.5800;-44.2300;-40.1700;-4.0600
1249.7790;-44.0000;-40.0300;-3.9700
1249.9780;-43.7600;-39.8600;-3.9000
1250.1770;-43.5400;-39.7200;-3.8200
1250.3760;-43.3500;-39.5700;-3.7800
1250.5750;-43.1200;-39.4100;-3.7100
1250.7740;-42.9200;-39.2700;-3.6500
1250.9740;-42.7400;-39.1200;-3.6200
1251.1730;-42.5400;-38.9800;-3.5600
1251.3720;-42.3500;-38.8100;-3.5400
1251.5710;-42.1500;-38.6600;-3.4900
1251.7700;-41.9500;-38.5100;-3.4400
1251.9690;-41.7400;-38.3400;-3.4000
1252.1680;-41.5200;-38.2000;-3.3200
1252.3670;-41.3000;-38.0200;-3.2800
1252.5660;-41.0700;-37.8700;-3.2000
1252.7660;-40.8400;-37.7000;-3.1400
1252.9650;-40.6200;-37.5400;-3.0800
1253.1640;-40.3900;-37.3800;-3.0100
1253.3630;-40.1800;-37.1900;-2.9900
1253.5620;-39.9600;-37.0300;-2.9300
1253.7610;-39.7700;-36.8600;-2.9100
1253.9600;-39.6000;-36.7000;-2.9000
1254.1590;-39.4400;-36.5500;-2.8900
1254.3580;-39.3200;-36.3700;-2.9500
1254.5580;-39.2100;-36.2200;-2.9900
1254.7570;-39.1400;-36.0500;-3.0900
1254.9560;-39.1000;-35.8700;-3.2300
1255.1550;-39.1100;-35.7500;-3.3600
1255.3540;-39.1500;-35.5900;-3.5600
1255.5530;-39.2300;-35.4700;-3.7600
1255.7520;-39.3600;-35.3100;-4.0500
1255.9510;-39.5200;-35.1600;-4.3600
1256.1500;-39.7200;-35.0200;-4.7000
1256.3500;-39.9800;-34.8700;-5.1100
1256.5490;-40.2600;-34.7500;-5.5100
1256.7480;-40.5700;-34.6000;-5.9700
1256.9470;-40.8800;-34.4600;-6.4200
1257.1460;-41.2000;-34.3100;-6.8900
1257.3450;-41.5000;-34.1600;-7.3400
1257.5440;-41.7400;-34.0300;-7.7100
1257.7430;-41.9100;-33.8700;-8.0400
1257.9430;-41.9600;-33.7300;-8.2300
1258.1420;-41.8900;-33.5700;-8.3200
1258.3410;-41.6800;-33.4200;-8.2600
1258.5400;-41.3500;-33.2800;-8.0700
1258.7390;-40.9200;-33.1100;-7.8100
1258.9380;-40.4100;-32.9600;-7.4500
1259.1370;-39.8700;-32.8000;-7.0700
1259.3360;-39.3300;-32.6400;-6.6900
1259.5350;-38.7900;-32.4900;-6.3000
1259.7350;-38.2800;-32.3200;-5.9600
1259.9340;-37.7800;-32.1700;-5.6100
1260.1330;-37.3400;-32.0200;-5.3200
1260.3320;-36.9300;-31.8600;-5.0700
1260.5310;-36.5800;-31.7200;-4.8600
1260.7300;-36.2600;-31.5600;-4.7000
1260.9290;-35.9200;-31.4100;-4.5100
1261.1280;-35.7400;-31.2500;-4.4900
1261.3270;-35.5300;-31.1100;-4.4200
1261.5270;-35.3700;-30.9800;-4.3900
1261.7260;-35.2200;-30.8300;-4.3900
1261.9250;-35.0900;-30.6900;-4.4000
1262.1240;-34.9800;-30.5400;-4.4400
1262.3230;-34.8600;-30.4000;-4.4600
1262.5220;-34.7600;-30.2700;-4.4900
1262.7210;-34.6400;-30.1300;-4.5100
1262.9200;-34.5000;-30.0000;-4.5000
1263.1200;-34.3500;-29.8500;-4.5000
1263.3190;-34.1600;-29.7100;-4.4500
1263.5180;-33.9500;-29.5800;-4.3700
1263.7170;-33.7000;-29.4400;-4.2600
1263.9160;-33.4100;-29.3000;-4.1100
1264.1150;-33.1300;-29.1500;-3.9800
1264.3140;-32.8000;-29.0100;-3.7900
1264.5130;-32.4800;-28.8800;-3.6000
1264.7120;-32.1500;-28.7300;-3.4200
1264.9120;-31.8100;-28.6100;-3.2000
1265.1110;-31.4900;-28.4600;-3.0300
1265.3100;-31.1700;-28.3200;-2.8500
1265.5090;-30.8800;-28.1900;-2.6900
1265.7080;-30.6000;-28.0500;-2.5500
1265.9070;-30.3400;-27.9300;-2.4100
1266.1060;-30.1200;-27.7800;-2.3400
1266.3050;-29.8900;-27.6600;-2.2300
1266.5040;-29.7200;-27.5400;-2.1800
1266.7040;-29.5500;-27.4100;-2.1400
1266.9030;-29.4000;-27.2900;-2.1100
1267.1020;-29.2800;-27.1600;-2.1200
1267.3010;-29.1600;-27.0400;-2.1200
1267.5000;-29.0900;-26.9300;-2.1600
1267.6990;-29.0000;-26.8000;-2.2000
1267.8980;-28.9300;-26.6900;-2.2400
1268.0970;-28.8800;-26.5700;-2.3100
1268.2970;-28.8100;-26.4600;-2.3500
1268.4960;-28.7600;-26.3500;-2.4100
1268.6950;-28.6900;-26.2300;-2.4600
1268.8940;-28.6200;-26.1200;-2.5000
1269.0930;-28.5600;-25.9700;-2.5900
1269.2920;-28.4800;-25.8800;-2.6000
1269.4910;-28.4200;-25.7600;-2.6600
1269.6900;-28.3500;-25.6600;-2.6900
1269.8890;-28.2800;-25.5300;-2.7500
1270.0890;-28.2200;-25.4100;-2.8100
1270.2880;-28.1700;-25.3100;-2.8600
1270.4870;-28.1500;-25.1900;-2.9600
1270.6860;-28.1200;-25.0800;-3.0400
1270.8850;-28.1200;-24.9600;-3.1600
1271.0840;-28.1600;-24.8500;-3.3100
1271.2830;-28.2200;-24.7400;-3.4800
1271.4820;-28.3100;-24.6200;-3.6900
1271.6810;-28.4200;-24.5200;-3.9000
1271.8810;-28.5800;-24.4100;-4.1700
1272.0800;-28.7800;-24.3000;-4.4800
1272.2790;-29.0000;-24.2000;-4.8000
1272.4780;-29.2600;-24.0800;-5.1800
1272.6770;-29.5200;-23.9900;-5.5300
1272.8760;-29.8100;-23.8700;-5.9400
1273.0750;-30.1000;-23.7700;-6.3300
1273.2740;-30.3600;-23.6700;-6.6900
1273.4740;-30.5700;-23.5600;-7.0100
1273.6730;-30.7000;-23.4600;-7.2400
1273.8720;-30.7400;-23.3500;-7.3900
1274.0710;-30.6500;-23.2400;-7.4100
1274.2700;-30.4400;-23.1400;-7.3000
1274.4690;-30.1200;-23.0300;-7.0900
1274.6680;-29.6900;-22.9400;-6.7500
1274.8670;-29.2000;-22.8300;-6.3700
1275.0660;-28.6500;-22.7300;-5.9200
1275.2660;-28.0800;-22.6300;-5.4500
1275.4650;-27.5300;-22.5300;-5.0000
1275.6640;-26.9700;-22.4400;-4.5300
1275.8630;-26.4500;-22.3400;-4.1100
1276.0620;-25.8500;-22.2500;-3.6000
1276.2610;-25.4700;-22.1600;-3.3100
1276.4600;-25.0300;-22.0700;-2.9600
1276.6590;-24.6200;-21.9900;-2.6300
1276.8580;-24.2700;-21.8900;-2.3800
1277.0580;-23.9300;-21.8200;-2.1100
1277.2570;-23.6400;-21.7300;-1.9100
1277.4560;-23.3700;-21.6500;-1.7200
1277.6550;-23.1300;-21.5900;-1.5400
1277.8540;-22.9200;-21.5000;-1.4200
1278.0530;-22.7400;-21.4300;-1.3100
1278.2520;-22.5900;-21.3400;-1.2500
1278.4510;-22.4500;-21.2700;-1.1800
1278.6500;-22.3400;-21.2000;-1.1400
1278.8500;-22.2600;-21.1100;-1.1500
1279.0490;-22.1800;-21.0400;-1.1400
1279.2480;-22.1400;-20.9500;-1.1900
1279.4470;-22.1000;-20.8800;-1.2200
1279.6460;-22.0900;-20.8000;-1.2900
1279.8450;-22.0800;-20.7100;-1.3700
1280.0440;-22.0900;-20.6500;-1.4400
1280.2430;-22.1200;-20.5500;-1.5700
1280.4430;-22.1500;-20.4700;-1.6800
1280.6420;-22.2000;-20.3900;-1.8100
1280.8410;-22.2600;-20.3000;-1.9600
1281.0400;-22.3300;-20.2400;-2.0900
1281.2390;-22.4300;-20.1500;-2.2800
1281.4380;-22.5200;-20.0700;-2.4500
1281.6370;-22.6500;-19.9900;-2.6600
1281.8360;-22.7700;-19.9100;-2.8600
1282.0350;-22.9100;-19.8400;-3.0700
1282.2350;-23.0800;-19.7500;-3.3300
1282.4340;-23.2400;-19.6900;-3.5500
1282.6330;-23.4500;-19.6200;-3.8300
1282.8320;-23.6400;-19.5400;-4.1000
1283.0310;-23.8400;-19.4900;-4.3500
1283.2300;-24.0600;-19.4100;-4.6500
1283.4290;-24.2500;-19.3500;-4.9000
1283.6280;-24.4700;-19.2700;-5.2000
1283.8270;-24.6500;-19.2000;-5.4500
1284.0270;-24.8200;-19.1500;-5.6700
1284.2260;-24.9600;-19.0800;-5.8800
1284.4250;-25.0600;-19.0300;-6.0300
1284.6240;-25.1400;-18.9500;-6.1900
1284.8230;-25.1500;-18.8900;-6.2600
1285.0220;-25.1300;-18.8400;-6.2900
1285.2210;-25.0600;-18.7700;-6.2900
1285.4200;-24.9300;-18.7200;-6.2100
1285.6200;-24.7900;-18.6400;-6.1500
1285.8190;-24.5800;-18.5900;-5.9900
1286.0180;-24.3600;-18.5300;-5.8300
1286.2170;-24.1000;-18.4700;-5.6300
1286.4160;-23.8300;-18.4200;-5.4100
1286.6150;-23.5700;-18.3600;-5.2100
1286.8140;-23.2700;-18.3100;-4.9600
1287.0130;-22.9800;-18.2600;-4.7200
1287.2120;-22.6700;-18.2000;-4.4700
1287.4120;-22.3700;-18.1700;-4.2000
1287.6110;-22.0700;-18.1100;-3.9600
1287.8100;-21.7600;-18.0700;-3.6900
1288.0090;-21.4700;-18.0200;-3.4500
1288.2080;-21.1600;-17.9700;-3.1900
1288.4070;-20.8700;-17.9400;-2.9300
1288.6060;-20.5900;-17.8900;-2.7000
1288.8050;-20.3000;-17.8600;-2.4400
1289.0040;-20.0400;-17.8100;-2.2300
1289.2040;-19.7700;-17.7700;-2.0000
1289.4030;-19.5200;-17.7400;-1.7800
1289.6020;-19.3000;-17.7000;-1.6000
1289.8010;-19.0800;-17.6700;-1.4100
1290.0000;-18.8900;-17.6200;-1.2700
1290.1990;-18.7100;-17.5800;-1.1300
1290.3980;-18.5600;-17.5500;-1.0100
1290.5970;-18.4400;-17.5200;-0.9200
1290.7970;-18.3400;-17.4900;-0.8500
1290.9960;-18.2700;-17.4300;-0.8400
1291.1950;-18.2200;-17.3900;-0.8300
1291.3940;-18.2100;-17.3500;-0.8600
1291.5930;-18.2200;-17.3000;-0.9200
1291.7920;-18.2800;-17.2700;-1.0100
1291.9910;-18.3800;-17.2100;-1.1700
1292.1900;-18.5000;-17.1800;-1.3200
1292.3890;-18.6800;-17.1300;-1.5500
1292.5890;-18.8600;-17.0800;-1.7800
1292.7880;-19.1100;-17.0500;-2.0600
1292.9870;-19.3900;-17.0000;-2.3900
1293.1860;-19.7100;-16.9700;-2.7400
1293.3850;-20.0800;-16.9200;-3.1600
1293.5840;-20.4500;-16.8700;-3.5800
1293.7830;-20.8700;-16.8400;-4.0300
1293.9820;-21.3200;-16.8000;-4.5200
1294.1810;-21.7900;-16.7900;-5.0000
1294.3810;-22.3000;-16.7400;-5.5600
1294.5800;-22.7800;-16.7000;-6.0800
1294.7790;-23.2800;-16.6700;-6.6100
1294.9780;-23.7700;-16.6400;-7.1300
1295.1770;-24.2300;-16.6200;-7.6100
1295.3760;-24.6900;-16.5900;-8.1000
1295.5750;-25.0900;-16.5600;-8.5300
1295.7740;-25.4800;-16.5200;-8.9600
1295.9740;-25.8200;-16.4900;-9.3300
1296.1730;-26.1600;-16.4700;-9.6900
1296.3720;-26.5000;-16.4400;-10.0600
1296.5710;-26.8400;-16.4100;-10.4300
1296.7700;-27.2300;-16.3800;-10.8500
1296.9690;-27.6700;-16.3600;-11.3100
1297.1680;-28.2800;-16.3400;-11.9400
1297.3670;-28.7700;-16.3100;-12.4600
1297.5660;-29.4500;-16.2900;-13.1600
1297.7660;-30.2300;-16.2600;-13.9700
1297.9650;-31.0800;-16.2400;-14.8400
1298.1640;-31.9100;-16.2100;-15.7000
1298.3630;-32.5100;-16.1900;-16.3200
1298.5620;-32.6300;-16.1800;-16.4500
1298.7610;-32.1000;-16.1500;-15.9500
1298.9600;-31.0400;-16.1400;-14.9000
1299.1590;-29.7000;-16.1200;-13.5800
1299.3580;-28.2800;-16.1100;-12.1700
1299.5580;-26.9200;-16.0900;-10.8300
1299.7570;-25.4500;-16.0800;-9.3700
1299.9560;-24.5300;-16.0800;-8.4500
1300.1550;-23.5000;-16.0700;-7.4300
1300.3540;-22.6000;-16.0700;-6.5300
1300.5530;-21.7800;-16.0400;-5.7400
1300.7520;-21.0600;-16.0400;-5.0200
1300.9510;-20.4300;-16.0400;-4.3900
1301.1500;-19.8700;-16.0400;-3.8300
1301.3500;-19.4000;-16.0500;-3.3500
1301.5490;-18.9800;-16.0400;-2.9400
1301.7480;-18.6300;-16.0400;-2.5900
1301.9470;-18.3500;-16.0400;-2.3100
1302.1460;-18.1300;-16.0400;-2.0900
1302.3450;-17.9600;-16.0500;-1.9100
1302.5440;-17.8500;-16.0500;-1.8000
1302.7430;-17.7900;-16.0600;-1.7300
1302.9430;-17.7800;-16.0500;-1.7300
1303.1420;-17.8200;-16.0600;-1.7600
1303.3410;-17.9100;-16.0800;-1.8300
1303.5400;-18.0400;-16.0800;-1.9600
1303.7390;-18.2100;-16.0900;-2.1200
1303.9380;-18.4300;-16.0900;-2.3400
1304.1370;-18.6800;-16.1000;-2.5800
1304.3360;-18.9500;-16.1200;-2.8300
1304.5350;-19.2400;-16.1300;-3.1100
1304.7350;-19.5400;-16.1500;-3.3900
1304.9340;-19.8300;-16.1500;-3.6800
1305.1330;-20.1100;-16.1700;-3.9400
1305.3320;-20.3600;-16.1900;-4.1700
1305.5310;-20.5600;-16.2100;-4.3500
1305.7300;-20.7100;-16.2300;-4.4800
1305.9290;-20.7900;-16.2400;-4.5500
1306.1280;-20.8200;-16.2600;-4.5600
1306.3270;-20.8100;-16.2800;-4.5300
1306.5270;-20.7400;-16.3000;-4.4400
1306.7260;-20.6600;-16.3400;-4.3200
1306.9250;-20.5600;-16.3500;-4.2100
1307.1240;-20.4600;-16.3800;-4.0800
1307.3230;-20.3900;-16.3900;-4.0000
1307.5220;-20.3400;-16.4200;-3.9200
1307.7210;-20.3400;-16.4600;-3.8800
1307.9200;-20.3700;-16.4700;-3.9000
1308.1200;-20.4700;-16.5100;-3.9600
1308.3190;-20.6200;-16.5200;-4.1000
1308.5180;-20.8400;-16.5500;-4.2900
1308.7170;-21.1400;-16.5700;-4.5700
1308.9160;-21.5100;-16.5900;-4.9200
1309.1150;-21.9800;-16.6200;-5.3600
1309.3140;-22.5400;-16.6300;-5.9100
1309.5130;-23.2200;-16.6700;-6.5500
1309.7120;-24.0300;-16.7000;-7.3300
1309.9120;-24.9600;-16.7100;-8.2500
