Wavelength;Intensity_Meas;Intensity_Ref;Difference_dB
1200.0000;-61.5100;-57.0400;-4.4700
1200.1990;-61.5100;-57.0100;-4.5000
1200.3980;-61.4500;-56.9700;-4.4800
1200.5970;-61.4500;-56.9600;-4.4900
1200.7970;-61.4200;-56.9200;-4.5000
1200.9960;-61.3400;-56.9000;-4.4400
1201.1950;-61.3300;-56.8600;-4.4700
1201.3940;-61.3000;-56.8000;-4.5000
1201.5930;-61.2300;-56.7800;-4.4500
1201.7920;-61.1700;-56.7400;-4.4300
1201.9910;-61.1100;-56.6800;-4.4300
1202.1900;-61.0900;-56.6500;-4.4400
1202.3890;-61.0100;-56.5600;-4.4500
1202.5890;-60.9400;-56.5200;-4.4200
1202.7880;-60.8900;-56.4800;-4.4100
1202.9870;-60.8500;-56.4300;-4.4200
1203.1860;-60.8300;-56.3600;-4.4700
1203.3850;-60.7500;-56.3000;-4.4500
1203.5840;-60.7000;-56.3000;-4.4000
1203.7830;-60.6800;-56.2500;-4.4300
1203.9820;-60.6500;-56.2000;-4.4500
1204.1810;-60.5900;-56.1500;-4.4400
1204.3810;-60.5300;-56.1100;-4.4200
1204.5800;-60.5000;-56.1100;-4.3900
1204.7790;-60.4500;-56.0600;-4.3900
1204.9780;-60.4000;-56.0100;-4.3900
1205.1770;-60.3700;-56.0000;-4.3700
1205.3760;-60.3300;-55.9800;-4.3500
1205.5750;-60.2800;-55.9600;-4.3200
1205.7740;-60.2700;-55.9300;-4.3400
1205.9740;-60.2200;-55.9100;-4.3100
1206.1730;-60.1500;-55.9200;-4.2300
1206.3720;-60.1400;-55.8800;-4.2600
1206.5710;-60.1300;-55.8700;-4.2600
1206.7700;-60.1000;-55.8300;-4.2700
1206.9690;-60.0500;-55.8100;-4.2400
1207.1680;-60.0600;-55.8300;-4.2300
1207.3670;-60.0500;-55.7800;-4.2700
1207.5660;-60.0200;-55.7300;-4.2900
1207.7660;-60.0000;-55.7100;-4.2900
1207.9650;-59.9900;-55.6900;-4.3000
1208.1640;-59.9900;-55.6500;-4.3400
1208.3630;-59.9400;-55.5800;-4.3600
1208.5620;-59.9000;-55.5500;-4.3500
1208.7610;-59.8800;-55.5300;-4.3500
1208.9600;-59.8700;-55.4700;-4.4000
1209.1590;-59.8300;-55.4200;-4.4100
1209.3580;-59.7700;-55.3500;-4.4200
1209.5580;-59.7100;-55.3200;-4.3900
1209.7570;-59.6800;-55.2900;-4.3900
1209.9560;-59.6400;-55.2200;-4.4200
1210.1550;-59.5700;-55.1700;-4.4000
1210.3540;-59.4900;-55.1200;-4.3700
1210.5530;-59.4400;-55.0900;-4.3500
1210.7520;-59.4200;-55.0300;-4.3900
1210.9510;-59.3200;-54.9700;-4.3500
1211.1500;-59.2400;-54.9500;-4.2900
1211.3500;-59.1800;-54.9100;-4.2700
1211.5490;-59.1600;-54.8600;-4.3000
1211.7480;-59.1100;-54.8200;-4.2900
1211.9470;-59.0100;-54.7900;-4.2200
1212.1460;-58.9500;-54.7700;-4.1800
1212.3450;-58.9300;-54.7300;-4.2000
1212.5440;-58.8900;-54.6800;-4.2100
1212.7430;-58.8400;-54.6700;-4.1700
1212.9430;-58.7700;-54.6400;-4.1300
1213.1420;-58.7700;-54.6200;-4.1500
1213.3410;-58.7600;-54.5800;-4.1800
1213.5400;-58.7100;-54.5600;-4.1500
1213.7390;-58.6800;-54.5500;-4.1300
1213.9380;-58.6700;-54.5200;-4.1500
1214.1370;-58.6700;-54.4700;-4.2000
1214.3360;-58.6200;-54.4200;-4.2000
1214.5350;-58.5800;-54.4100;-4.1700
1214.7350;-58.5900;-54.3900;-4.2000
1214.9340;-58.5700;-54.3300;-4.2400
1215.1330;-58.5400;-54.2800;-4.2600
1215.3320;-58.4500;-54.2400;-4.2100
1215.5310;-58.4200;-54.2100;-4.2100
1215.7300;-58.4200;-54.1500;-4.2700
1215.9290;-58.3500;-54.0900;-4.2600
1216.1280;-58.2700;-54.0500;-4.2200
1216.3270;-58.2200;-53.9900;-4.2300
1216.5270;-58.1800;-53.9400;-4.2400
1216.7260;-58.1200;-53.8800;-4.2400
1216.9250;-58.0200;-53.8200;-4.2000
1217.1240;-57.9400;-53.7900;-4.1500
1217.3230;-57.8900;-53.7100;-4.1800
1217.5220;-57.8300;-53.6500;-4.1800
1217.7210;-57.7300;-53.6100;-4.1200
1217.9200;-57.6400;-53.5600;-4.0800
1218.1200;-57.6000;-53.5200;-4.0800
1218.3190;-57.5500;-53.4500;-4.1000
1218.5180;-57.4500;-53.4300;-4.0200
1218.7170;-57.3800;-53.4000;-3.9800
1218.9160;-57.3300;-53.3500;-3.9800
1219.1150;-57.3000;-53.3100;-3.9900
1219.3140;-57.2400;-53.2700;-3.9700
1219.5130;-57.1900;-53.2500;-3.9400
1219.7120;-57.1700;-53.2200;-3.9500
1219.9120;-57.1500;-53.1700;-3.9800
1220.1110;-57.1300;-53.1600;-3.9700
1220.3100;-57.0900;-53.1200;-3.9700
1220.5090;-57.0900;-53.0900;-4.0000
1220.7080;-57.1100;-53.0400;-4.0700
1220.9070;-57.0900;-53.0000;-4.0900
1221.1060;-57.0700;-52.9700;-4.1000
1221.3050;-57.0800;-52.9200;-4.1600
1221.5040;-57.0800;-52.8600;-4.2200
1221.7040;-57.0900;-52.8100;-4.2800
1221.9030;-57.0700;-52.7700;-4.3000
1222.1020;-57.0700;-52.7100;-4.3600
1222.3010;-57.0700;-52.6400;-4.4300
1222.5000;-57.0400;-52.5700;-4.4700
1222.6990;-57.0200;-52.5100;-4.5100
1222.8980;-57.0000;-52.4500;-4.5500
1223.0970;-56.9900;-52.3900;-4.6000
1223.2970;-56.9600;-52.3000;-4.6600
1223.4960;-56.9000;-52.2300;-4.6700
1223.6950;-56.8800;-52.1700;-4.7100
1223.8940;-56.8600;-52.1000;-4.7600
1224.0930;-56.8300;-52.0400;-4.7900
1224.2920;-56.7700;-51.9700;-4.8000
1224.4910;-56.7200;-51.8900;-4.8300
1224.6900;-56.7200;-51.8400;-4.8800
1224.8890;-56.6700;-51.7600;-4.9100
1225.0890;-56.6400;-51.7200;-4.9200
1225.2880;-56.5800;-51.6500;-4.9300
1225.4870;-56.5500;-51.5800;-4.9700
1225.6860;-56.5200;-51.5300;-4.9900
1225.8850;-56.4600;-51.4900;-4.9700
1226.0840;-56.4000;-51.4400;-4.9600
1226.2830;-56.3600;-51.3800;-4.9800
1226.4820;-56.2900;-51.3200;-4.9700
1226.6810;-56.2100;-51.2900;-4.9200
1226.8810;-56.1300;-51.2400;-4.8900
1227.0800;-56.0500;-51.1900;-4.8600
1227.2790;-55.9600;-51.1300;-4.8300
1227.4780;-55.8300;-51.0800;-4.7500
1227.6770;-55.6900;-51.0300;-4.6600
1227.8760;-55.6100;-50.9700;-4.6400
1228.0750;-55.5000;-50.9200;-4.5800
1228.2740;-55.3500;-50.8600;-4.4900
1228.4740;-55.2200;-50.7900;-4.4300
1228.6730;-55.0900;-50.7300;-4.3600
1228.8720;-54.9700;-50.6700;-4.3000
1229.0710;-54.8300;-50.6100;-4.2200
1229.2700;-54.7000;-50.5200;-4.1800
1229.4690;-54.6000;-50.4400;-4.1600
1229.6680;-54.4900;-50.3800;-4.1100
1229.8670;-54.3700;-50.3000;-4.0700
1230.0660;-54.2900;-50.2300;-4.0600
1230.2660;-54.2200;-50.1400;-4.0800
1230.4650;-54.1600;-50.0500;-4.1100
1230.6640;-54.1000;-49.9900;-4.1100
1230.8630;-54.0900;-49.9200;-4.1700
1231.0620;-54.1100;-49.8500;-4.2600
1231.2610;-54.1200;-49.7800;-4.3400
1231.4600;-54.1500;-49.7200;-4.4300
1231.6590;-54.1900;-49.6600;-4.5300
1231.8580;-54.2600;-49.5900;-4.6700
1232.0580;-54.3400;-49.5400;-4.8000
1232.2570;-54.3900;-49.4700;-4.9200
1232.4560;-54.5000;-49.4200;-5.0800
1232.6550;-54.5800;-49.3600;-5.2200
1232.8540;-54.6400;-49.2900;-5.3500
1233.0530;-54.7100;-49.2600;-5.4500
1233.2520;-54.7600;-49.1900;-5.5700
1233.4510;-54.8000;-49.1300;-5.6700
1233.6500;-54.7900;-49.0800;-5.7100
1233.8500;-54.7600;-49.0100;-5.7500
1234.0490;-54.7400;-48.9700;-5.7700
1234.2480;-54.6400;-48.8900;-5.7500
1234.4470;-54.5300;-48.8300;-5.7000
1234.6460;-54.3800;-48.7700;-5.6100
1234.8450;-54.2500;-48.7000;-5.5500
1235.0440;-54.0700;-48.6300;-5.4400
1235.2430;-53.8600;-48.5500;-5.3100
1235.4430;-53.6600;-48.4800;-5.1800
1235.6420;-53.4600;-48.3900;-5.0700
1235.8410;-53.2500;-48.3000;-4.9500
1236.0400;-53.0500;-48.2300;-4.8200
1236.2390;-52.8600;-48.1300;-4.7300
1236.4380;-52.6900;-48.0600;-4.6300
1236.6370;-52.5200;-47.9700;-4.5500
1236.8360;-52.3400;-47.8700;-4.4700
1237.0350;-52.2300;-47.7900;-4.4400
1237.2350;-52.1200;-47.7000;-4.4200
1237.4340;-52.0100;-47.6200;-4.3900
1237.6330;-51.9200;-47.5300;-4.3900
1237.8320;-51.8600;-47.4600;-4.4000
1238.0310;-51.8200;-47.3700;-4.4500
1238.2300;-51.7600;-47.2900;-4.4700
1238.4290;-51.7300;-47.2200;-4.5100
1238.6280;-51.7200;-47.1400;-4.5800
1238.8270;-51.7000;-47.0600;-4.6400
1239.0270;-51.6800;-46.9800;-4.7000
1239.2260;-51.6500;-46.9000;-4.7500
1239.4250;-51.6400;-46.8300;-4.8100
1239.6240;-51.6000;-46.7400;-4.8600
1239.8230;-51.5500;-46.6600;-4.8900
1240.0220;-51.5000;-46.5700;-4.9300
1240.2210;-51.4300;-46.4800;-4.9500
1240.4200;-51.3500;-46.4000;-4.9500
1240.6200;-51.2300;-46.3000;-4.9300
1240.8190;-51.1200;-46.2000;-4.9200
1241.0180;-50.9900;-46.0800;-4.9100
1241.2170;-50.8300;-45.9700;-4.8600
1241.4160;-50.6900;-45.8400;-4.8500
1241.6150;-50.5300;-45.7400;-4.7900
1241.8140;-50.3800;-45.6300;-4.7500
1242.0130;-50.2300;-45.5000;-4.7300
1242.2120;-50.0800;-45.3900;-4.6900
1242.4120;-49.9600;-45.2600;-4.7000
1242.6110;-49.8200;-45.1300;-4.6900
1242.8100;-49.7000;-45.0100;-4.6900
1243.0090;-49.5900;-44.8600;-4.7300
1243.2080;-49.5000;-44.7500;-4.7500
1243.4070;-49.4200;-44.6100;-4.8100
1243.6060;-49.3300;-44.4700;-4.8600
1243.8050;-49.2900;-44.3600;-4.9300
1244.0040;-49.2400;-44.2200;-5.0200
1244.2040;-49.1900;-44.1000;-5.0900
1244.4030;-49.1700;-43.9700;-5.2000
1244.6020;-49.1500;-43.8300;-5.3200
1244.8010;-49.1400;-43.7200;-5.4200
1245.0000;-49.1200;-43.5900;-5.5300
1245.1990;-49.1200;-43.4700;-5.6500
1245.3980;-49.1500;-43.3300;-5.8200
1245.5970;-49.1300;-43.2000;-5.9300
1245.7970;-49.1400;-43.0700;-6.0700
1245.9960;-49.1400;-42.9300;-6.2100
1246.1950;-49.1400;-42.8000;-6.3400
1246.3940;-49.1400;-42.6500;-6.4900
1246.5930;-49.1100;-42.5000;-6.6100
1246.7920;-49.0900;-42.3700;-6.7200
1246.9910;-49.0300;-42.2000;-6.8300
1247.1900;-48.9600;-42.0600;-6.9000
1247.3890;-48.9000;-41.9100;-6.9900
1247.5890;-48.7800;-41.7400;-7.0400
1247.7880;-48.6500;-41.6000;-7.0500
1247.9870;-48.4900;-41.4300;-7.0600
1248.1860;-48.3200;-41.2800;-7.0400
1248.3850;-48.1500;-41.1100;-7.0400
1248.5840;-47.9300;-40.9400;-6.9900
1248.7830;-47.7300;-40.8000;-6.9300
1248.9820;-47.5100;-40.6400;-6.8700
1249.1810;-47.2900;-40.4900;-6.8000
1249.3810;-47.0800;-40.3300;-6.7500
1249.5800;-46.8500;-40.1700;-6.6800
1249.7790;-46.6500;-40.0300;-6.6200
1249.9780;-46.4200;-39.8600;-6.5600
1250.1770;-46.2300;-39.7200;-6.5100
1250.3760;-46.0500;-39.5700;-6.4800
1250.5750;-45.8400;-39.4100;-6.4300
1250.7740;-45.6200;-39.2700;-6.3500
1250.9740;-45.4700;-39.1200;-6.3500
1251.1730;-45.2900;-38.9800;-6.3100
1251.3720;-45.0700;-38.8100;-6.2600
1251.5710;-44.8600;-38.6600;-6.2000
1251.7700;-44.6500;-38.5100;-6.1400
1251.9690;-44.3900;-38.3400;-6.0500
1252.1680;-44.1300;-38.2000;-5.9300
1252.3670;-43.8300;-38.0200;-5.8100
1252.5660;-43.5400;-37.8700;-5.6700
1252.7660;-43.2100;-37.7000;-5.5100
1252.9650;-42.8700;-37.5400;-5.3300
1253.1640;-42.5300;-37.3800;-5.1500
1253.3630;-42.1500;-37.1900;-4.9600
1253.5620;-41.7800;-37.0300;-4.7500
1253.7610;-41.4100;-36.8600;-4.5500
1253.9600;-41.0500;-36.7000;-4.3500
1254.1590;-40.7000;-36.5500;-4.1500
1254.3580;-40.3300;-36.3700;-3.9600
1254.5580;-40.0200;-36.2200;-3.8000
1254.7570;-39.7000;-36.0500;-3.6500
1254.9560;-39.3900;-35.8700;-3.5200
1255.1550;-39.1400;-35.7500;-3.3900
1255.3540;-38.8800;-35.5900;-3.2900
1255.5530;-38.6600;-35.4700;-3.1900
1255.7520;-38.4400;-35.3100;-3.1300
1255.9510;-38.2500;-35.1600;-3.0900
1256.1500;-38.1000;-35.0200;-3.0800
1256.3500;-37.9400;-34.8700;-3.0700
1256.5490;-37.8300;-34.7500;-3.0800
1256.7480;-37.7100;-34.6000;-3.1100
1256.9470;-37.6100;-34.4600;-3.1500
1257.1460;-37.5400;-34.3100;-3.2300
1257.3450;-37.4600;-34.1600;-3.3000
1257.5440;-37.4200;-34.0300;-3.3900
1257.7430;-37.3600;-33.8700;-3.4900
1257.9430;-37.3200;-33.7300;-3.5900
1258.1420;-37.3000;-33.5700;-3.7300
1258.3410;-37.2600;-33.4200;-3.8400
1258.5400;-37.2400;-33.2800;-3.9600
1258.7390;-37.2000;-33.1100;-4.0900
1258.9380;-37.1600;-32.9600;-4.2000
1259.1370;-37.1300;-32.8000;-4.3300
1259.3360;-37.0800;-32.6400;-4.4400
1259.5350;-37.0600;-32.4900;-4.5700
1259.7350;-37.0100;-32.3200;-4.6900
1259.9340;-36.9600;-32.1700;-4.7900
1260.1330;-36.9400;-32.0200;-4.9200
1260.3320;-36.9000;-31.8600;-5.0400
1260.5310;-36.8800;-31.7200;-5.1600
1260.7300;-36.8400;-31.5600;-5.2800
1260.9290;-36.8100;-31.4100;-5.4000
1261.1280;-36.7800;-31.2500;-5.5300
1261.3270;-36.7300;-31.1100;-5.6200
1261.5270;-36.7000;-30.9800;-5.7200
1261.7260;-36.6000;-30.8300;-5.7700
1261.9250;-36.4900;-30.6900;-5.8000
1262.1240;-36.3300;-30.5400;-5.7900
1262.3230;-36.1200;-30.4000;-5.7200
1262.5220;-35.8200;-30.2700;-5.5500
1262.7210;-35.5500;-30.1300;-5.4200
1262.9200;-35.2000;-30.0000;-5.2000
1263.1200;-34.7800;-29.8500;-4.9300
1263.3190;-34.3400;-29.7100;-4.6300
1263.5180;-33.8700;-29.5800;-4.2900
1263.7170;-33.3800;-29.4400;-3.9400
1263.9160;-32.9000;-29.3000;-3.6000
1264.1150;-32.4000;-29.1500;-3.2500
1264.3140;-31.9200;-29.0100;-2.9100
1264.5130;-31.4600;-28.8800;-2.5800
1264.7120;-31.0200;-28.7300;-2.2900
1264.9120;-30.6100;-28.6100;-2.0000
1265.1110;-30.2200;-28.4600;-1.7600
1265.3100;-29.8800;-28.3200;-1.5600
1265.5090;-29.5700;-28.1900;-1.3800
1265.7080;-29.2900;-28.0500;-1.2400
1265.9070;-29.0600;-27.9300;-1.1300
1266.1060;-28.8500;-27.7800;-1.0700
1266.3050;-28.6900;-27.6600;-1.0300
1266.5040;-28.5700;-27.5400;-1.0300
1266.7040;-28.4700;-27.4100;-1.0600
1266.9030;-28.4300;-27.2900;-1.1400
1267.1020;-28.4000;-27.1600;-1.2400
1267.3010;-28.4200;-27.0400;-1.3800
1267.5000;-28.4600;-26.9300;-1.5300
1267.6990;-28.5200;-26.8000;-1.7200
1267.8980;-28.6200;-26.6900;-1.9300
1268.0970;-28.7200;-26.5700;-2.1500
1268.2970;-28.8400;-26.4600;-2.3800
1268.4960;-28.9600;-26.3500;-2.6100
1268.6950;-29.0900;-26.2300;-2.8600
1268.8940;-29.2100;-26.1200;-3.0900
1269.0930;-29.3200;-25.9700;-3.3500
1269.2920;-29.4300;-25.8800;-3.5500
1269.4910;-29.5200;-25.7600;-3.7600
1269.6900;-29.6000;-25.6600;-3.9400
1269.8890;-29.6700;-25.5300;-4.1400
1270.0890;-29.7300;-25.4100;-4.3200
1270.2880;-29.8000;-25.3100;-4.4900
1270.4870;-29.8700;-25.1900;-4.6800
1270.6860;-29.9500;-25.0800;-4.8700
1270.8850;-30.0700;-24.9600;-5.1100
1271.0840;-30.2100;-24.8500;-5.3600
1271.2830;-30.4100;-24.7400;-5.6700
1271.4820;-30.6600;-24.6200;-6.0400
1271.6810;-30.9800;-24.5200;-6.4600
1271.8810;-31.3800;-24.4100;-6.9700
1272.0800;-31.8800;-24.3000;-7.5800
1272.2790;-32.5100;-24.2000;-8.3100
1272.4780;-33.2500;-24.0800;-9.1700
1272.6770;-34.1500;-23.9900;-10.1600
1272.8760;-35.2100;-23.8700;-11.3400
1273.0750;-36.4400;-23.7700;-12.6700
1273.2740;-37.7500;-23.6700;-14.0800
1273.4740;-39.0900;-23.5600;-15.5300
1273.6730;-39.3700;-23.4600;-15.9100
1273.8720;-38.7700;-23.3500;-15.4200
1274.0710;-37.3700;-23.2400;-14.1300
1274.2700;-35.3900;-23.1400;-12.2500
1274.4690;-33.9700;-23.0300;-10.9400
1274.6680;-32.4400;-22.9400;-9.5000
1274.8670;-31.0700;-22.8300;-8.2400
1275.0660;-29.8700;-22.7300;-7.1400
1275.2660;-28.8000;-22.6300;-6.1700
1275.4650;-27.8800;-22.5300;-5.3500
1275.6640;-27.0400;-22.4400;-4.6000
1275.8630;-26.3200;-22.3400;-3.9800
1276.0620;-25.5800;-22.2500;-3.3300
1276.2610;-25.1300;-22.1600;-2.9700
1276.4600;-24.6600;-22.0700;-2.5900
1276.6590;-24.2400;-21.9900;-2.2500
1276.8580;-23.9100;-21.8900;-2.0200
1277.0580;-23.6100;-21.8200;-1.7900
1277.2570;-23.3900;-21.7300;-1.6600
1277.4560;-23.2200;-21.6500;-1.5700
1277.6550;-23.1000;-21.5900;-1.5100
1277.8540;-23.0400;-21.5000;-1.5400
1278.0530;-23.0000;-21.4300;-1.5700
1278.2520;-23.0100;-21.3400;-1.6700
1278.4510;-23.0400;-21.2700;-1.7700
1278.6500;-23.1000;-21.2000;-1.9000
1278.8500;-23.1900;-21.1100;-2.0800
1279.0490;-23.2700;-21.0400;-2.2300
1279.2480;-23.3600;-20.9500;-2.4100
1279.4470;-23.4400;-20.8800;-2.5600
1279.6460;-23.4900;-20.8000;-2.6900
1279.8450;-23.5200;-20.7100;-2.8100
1280.0440;-23.5000;-20.6500;-2.8500
1280.2430;-23.4500;-20.5500;-2.9000
1280.4430;-23.3200;-20.4700;-2.8500
1280.6420;-23.1600;-20.3900;-2.7700
1280.8410;-22.9700;-20.3000;-2.6700
1281.0400;-22.7400;-20.2400;-2.5000
1281.2390;-22.5000;-20.1500;-2.3500
1281.4380;-22.2400;-20.0700;-2.1700
1281.6370;-21.9900;-19.9900;-2.0000
1281.8360;-21.7500;-19.9100;-1.8400
1282.0350;-21.5300;-19.8400;-1.6900
1282.2350;-21.3500;-19.7500;-1.6000
1282.4340;-21.1900;-19.6900;-1.5000
1282.6330;-21.0900;-19.6200;-1.4700
1282.8320;-21.0200;-19.5400;-1.4800
1283.0310;-21.0000;-19.4900;-1.5100
1283.2300;-21.0500;-19.4100;-1.6400
1283.4290;-21.1300;-19.3500;-1.7800
1283.6280;-21.3000;-19.2700;-2.0300
1283.8270;-21.5200;-19.2000;-2.3200
1284.0270;-21.8100;-19.1500;-2.6600
1284.2260;-22.1900;-19.0800;-3.1100
1284.4250;-22.6500;-19.0300;-3.6200
1284.6240;-23.2100;-18.9500;-4.2600
1284.8230;-23.8700;-18.8900;-4.9800
1285.0220;-24.6500;-18.8400;-5.8100
1285.2210;-25.5800;-18.7700;-6.8100
1285.4200;-26.6300;-18.7200;-7.9100
1285.6200;-27.8500;-18.6400;-9.2100
1285.8190;-29.4600;-18.5900;-10.8700
1286.0180;-30.5500;-18.5300;-12.0200
1286.2170;-31.5600;-18.4700;-13.0900
1286.4160;-31.8700;-18.4200;-13.4500
1286.6150;-31.2500;-18.3600;-12.8900
1286.8140;-29.9700;-18.3100;-11.6600
1287.0130;-28.5100;-18.2600;-10.2500
1287.2120;-27.0900;-18.2000;-8.8900
1287.4120;-25.6100;-18.1700;-7.4400
1287.6110;-24.6700;-18.1100;-6.5600
1287.8100;-23.6900;-18.0700;-5.6200
1288.0090;-22.8400;-18.0200;-4.8200
1288.2080;-22.0800;-17.9700;-4.1100
1288.4070;-21.4500;-17.9400;-3.5100
1288.6060;-20.8800;-17.8900;-2.9900
1288.8050;-20.4000;-17.8600;-2.5400
1289.0040;-20.0000;-17.8100;-2.1900
1289.2040;-19.6600;-17.7700;-1.8900
1289.4030;-19.4000;-17.7400;-1.6600
1289.6020;-19.1700;-17.7000;-1.4700
1289.8010;-19.0100;-17.6700;-1.3400
1290.0000;-18.9100;-17.6200;-1.2900
1290.1990;-18.8500;-17.5800;-1.2700
1290.3980;-18.8500;-17.5500;-1.3000
1290.5970;-18.8900;-17.5200;-1.3700
1290.7970;-18.9800;-17.4900;-1.4900
1290.9960;-19.1000;-17.4300;-1.6700
1291.1950;-19.2800;-17.3900;-1.8900
1291.3940;-19.5300;-17.3500;-2.1800
1291.5930;-19.7900;-17.3000;-2.4900
1291.7920;-20.1400;-17.2700;-2.8700
1291.9910;-20.5300;-17.2100;-3.3200
1292.1900;-20.9900;-17.1800;-3.8100
1292.3890;-21.5200;-17.1300;-4.3900
1292.5890;-22.0900;-17.0800;-5.0100
1292.7880;-22.7700;-17.0500;-5.7200
1292.9870;-23.5200;-17.0000;-6.5200
1293.1860;-24.3600;-16.9700;-7.3900
1293.3850;-25.3100;-16.9200;-8.3900
1293.5840;-26.3400;-16.8700;-9.4700
1293.7830;-27.4800;-16.8400;-10.6400
1293.9820;-28.8900;-16.8000;-12.0900
1294.1810;-29.8200;-16.7900;-13.0300
1294.3810;-30.7100;-16.7400;-13.9700
1294.5800;-31.1600;-16.7000;-14.4600
1294.7790;-31.0100;-16.6700;-14.3400
1294.9780;-30.3500;-16.6400;-13.7100
1295.1770;-29.4200;-16.6200;-12.8000
1295.3760;-28.4000;-16.5900;-11.8100
1295.5750;-27.4200;-16.5600;-10.8600
1295.7740;-26.5300;-16.5200;-10.0100
1295.9740;-25.6200;-16.4900;-9.1300
1296.1730;-25.0800;-16.4700;-8.6100
1296.3720;-24.5300;-16.4400;-8.0900
1296.5710;-24.0800;-16.4100;-7.6700
1296.7700;-23.7200;-16.3800;-7.3400
1296.9690;-23.4800;-16.3600;-7.1200
1297.1680;-23.3100;-16.3400;-6.9700
1297.3670;-23.2400;-16.3100;-6.9300
1297.5660;-23.2600;-16.2900;-6.9700
1297.7660;-23.3700;-16.2600;-7.1100
1297.9650;-23.6000;-16.2400;-7.3600
1298.1640;-23.9000;-16.2100;-7.6900
1298.3630;-24.3300;-16.1900;-8.1400
1298.5620;-24.8700;-16.1800;-8.6900
1298.7610;-25.5300;-16.1500;-9.3800
1298.9600;-26.3600;-16.1400;-10.2200
1299.1590;-27.2700;-16.1200;-11.1500
1299.3580;-28.5500;-16.1100;-12.4400
1299.5580;-29.3800;-16.0900;-13.2900
1299.7570;-30.2500;-16.0800;-14.1700
1299.9560;-30.6600;-16.0800;-14.5800
1300.1550;-30.3300;-16.0700;-14.2600
1300.3540;-29.3900;-16.0700;-13.3200
1300.5530;-28.0600;-16.0400;-12.0200
1300.7520;-26.7000;-16.0400;-10.6600
1300.9510;-25.1600;-16.0400;-9.1200
1301.1500;-24.1900;-16.0400;-8.1500
1301.3500;-23.1300;-16.0500;-7.0800
1301.5490;-22.1900;-16.0400;-6.1500
1301.7480;-21.3700;-16.0400;-5.3300
1301.9470;-20.6300;-16.0400;-4.5900
1302.1460;-20.0100;-16.0400;-3.9700
1302.3450;-19.4500;-16.0500;-3.4000
1302.5440;-18.9700;-16.0500;-2.9200
1302.7430;-18.5800;-16.0600;-2.5200
1302.9430;-18.2200;-16.0500;-2.1700
1303.1420;-17.9600;-16.0600;-1.9000
1303.3410;-17.7300;-16.0800;-1.6500
1303.5400;-17.5600;-16.0800;-1.4800
1303.7390;-17.4400;-16.0900;-1.3500
1303.9380;-17.3600;-16.0900;-1.2700
1304.1370;-17.3400;-16.1000;-1.2400
1304.3360;-17.3300;-16.1200;-1.2100
1304.5350;-17.3700;-16.1300;-1.2400
1304.7350;-17.4400;-16.1500;-1.2900
1304.9340;-17.5200;-16.1500;-1.3700
1305.1330;-17.6400;-16.1700;-1.4700
1305.3320;-17.7300;-16.1900;-1.5400
1305.5310;-17.8600;-16.2100;-1.6500
1305.7300;-17.9700;-16.2300;-1.7400
1305.9290;-18.0600;-16.2400;-1.8200
1306.1280;-18.1700;-16.2600;-1.9100
1306.3270;-18.2200;-16.2800;-1.9400
1306.5270;-18.2700;-16.3000;-1.9700
1306.7260;-18.3000;-16.3400;-1.9600
1306.9250;-18.2900;-16.3500;-1.9400
1307.1240;-18.2900;-16.3800;-1.9100
1307.3230;-18.2500;-16.3900;-1.8600
1307.5220;-18.2400;-16.4200;-1.8200
1307.7210;-18.2100;-16.4600;-1.7500
1307.9200;-18.1800;-16.4700;-1.7100
1308.1200;-18.2000;-16.5100;-1.6900
1308.3190;-18.2100;-16.5200;-1.6900
1308.5180;-18.2800;-16.5500;-1.7300
1308.7170;-18.3600;-16.5700;-1.7900
1308.9160;-18.4800;-16.5900;-1.8900
1309.1150;-18.6700;-16.6200;-2.0500
1309.3140;-18.8800;-16.6300;-2.2500
1309.5130;-19.1800;-16.6700;-2.5100
1309.7120;-19.4900;-16.7000;-2.7900
1309.9120;-19.8900;-16.7100;-3.1800
