Wavelength;Intensity_Meas;Intensity_Ref;Difference_dB
1200.0000;-61.2400;-57.0400;-4.2000
1200.1990;-61.1800;-57.0100;-4.1700
1200.3980;-61.1800;-56.9700;-4.2100
1200.5970;-61.1700;-56.9600;-4.2100
1200.7970;-61.1400;-56.9200;-4.2200
1200.9960;-61.0900;-56.9000;-4.1900
1201.1950;-61.0100;-56.8600;-4.1500
1201.3940;-60.9900;-56.8000;-4.1900
1201.5930;-60.9500;-56.7800;-4.1700
1201.7920;-60.8300;-56.7400;-4.0900
1201.9910;-60.8200;-56.6800;-4.1400
1202.1900;-60.7700;-56.6500;-4.1200
1202.3890;-60.6800;-56.5600;-4.1200
1202.5890;-60.6100;-56.5200;-4.0900
1202.7880;-60.5300;-56.4800;-4.0500
1202.9870;-60.5200;-56.4300;-4.0900
1203.1860;-60.4300;-56.3600;-4.0700
1203.3850;-60.3600;-56.3000;-4.0600
1203.5840;-60.3300;-56.3000;-4.0300
1203.7830;-60.2900;-56.2500;-4.0400
1203.9820;-60.2900;-56.2000;-4.0900
1204.1810;-60.2100;-56.1500;-4.0600
1204.3810;-60.1600;-56.1100;-4.0500
1204.5800;-60.1600;-56.1100;-4.0500
1204.7790;-60.1200;-56.0600;-4.0600
1204.9780;-60.1100;-56.0100;-4.1000
1205.1770;-60.0700;-56.0000;-4.0700
1205.3760;-60.0500;-55.9800;-4.0700
1205.5750;-60.0400;-55.9600;-4.0800
1205.7740;-60.0600;-55.9300;-4.1300
1205.9740;-60.0400;-55.9100;-4.1300
1206.1730;-59.9800;-55.9200;-4.0600
1206.3720;-60.0000;-55.8800;-4.1200
1206.5710;-60.0600;-55.8700;-4.1900
1206.7700;-60.0100;-55.8300;-4.1800
1206.9690;-60.0100;-55.8100;-4.2000
1207.1680;-60.0000;-55.8300;-4.1700
1207.3670;-60.0300;-55.7800;-4.2500
1207.5660;-60.0500;-55.7300;-4.3200
1207.7660;-60.0100;-55.7100;-4.3000
1207.9650;-60.0300;-55.6900;-4.3400
1208.1640;-60.0200;-55.6500;-4.3700
1208.3630;-60.0200;-55.5800;-4.4400
1208.5620;-60.0100;-55.5500;-4.4600
1208.7610;-59.9500;-55.5300;-4.4200
1208.9600;-59.9300;-55.4700;-4.4600
1209.1590;-59.9000;-55.4200;-4.4800
1209.3580;-59.8200;-55.3500;-4.4700
1209.5580;-59.8000;-55.3200;-4.4800
1209.7570;-59.7500;-55.2900;-4.4600
1209.9560;-59.7100;-55.2200;-4.4900
1210.1550;-59.6100;-55.1700;-4.4400
1210.3540;-59.5200;-55.1200;-4.4000
1210.5530;-59.5000;-55.0900;-4.4100
1210.7520;-59.4300;-55.0300;-4.4000
1210.9510;-59.3500;-54.9700;-4.3800
1211.1500;-59.2500;-54.9500;-4.3000
1211.3500;-59.2000;-54.9100;-4.2900
1211.5490;-59.1500;-54.8600;-4.2900
1211.7480;-59.0800;-54.8200;-4.2600
1211.9470;-58.9900;-54.7900;-4.2000
1212.1460;-58.9000;-54.7700;-4.1300
1212.3450;-58.8800;-54.7300;-4.1500
1212.5440;-58.8300;-54.6800;-4.1500
1212.7430;-58.7600;-54.6700;-4.0900
1212.9430;-58.6900;-54.6400;-4.0500
1213.1420;-58.6600;-54.6200;-4.0400
1213.3410;-58.6500;-54.5800;-4.0700
1213.5400;-58.6000;-54.5600;-4.0400
1213.7390;-58.5000;-54.5500;-3.9500
1213.9380;-58.4900;-54.5200;-3.9700
1214.1370;-58.4800;-54.4700;-4.0100
1214.3360;-58.4100;-54.4200;-3.9900
1214.5350;-58.3700;-54.4100;-3.9600
1214.7350;-58.3100;-54.3900;-3.9200
1214.9340;-58.3000;-54.3300;-3.9700
1215.1330;-58.2400;-54.2800;-3.9600
1215.3320;-58.1700;-54.2400;-3.9300
1215.5310;-58.1500;-54.2100;-3.9400
1215.7300;-58.1000;-54.1500;-3.9500
1215.9290;-58.0400;-54.0900;-3.9500
1216.1280;-57.9600;-54.0500;-3.9100
1216.3270;-57.8900;-53.9900;-3.9000
1216.5270;-57.8800;-53.9400;-3.9400
1216.7260;-57.8100;-53.8800;-3.9300
1216.9250;-57.7300;-53.8200;-3.9100
1217.1240;-57.6600;-53.7900;-3.8700
1217.3230;-57.6200;-53.7100;-3.9100
1217.5220;-57.5900;-53.6500;-3.9400
1217.7210;-57.5000;-53.6100;-3.8900
1217.9200;-57.4400;-53.5600;-3.8800
1218.1200;-57.4100;-53.5200;-3.8900
1218.3190;-57.3700;-53.4500;-3.9200
1218.5180;-57.3100;-53.4300;-3.8800
1218.7170;-57.2500;-53.4000;-3.8500
1218.9160;-57.2300;-53.3500;-3.8800
1219.1150;-57.2100;-53.3100;-3.9000
1219.3140;-57.1700;-53.2700;-3.9000
1219.5130;-57.1600;-53.2500;-3.9100
1219.7120;-57.1600;-53.2200;-3.9400
1219.9120;-57.1800;-53.1700;-4.0100
1220.1110;-57.1600;-53.1600;-4.0000
1220.3100;-57.1500;-53.1200;-4.0300
1220.5090;-57.1800;-53.0900;-4.0900
1220.7080;-57.2100;-53.0400;-4.1700
1220.9070;-57.2300;-53.0000;-4.2300
1221.1060;-57.2400;-52.9700;-4.2700
1221.3050;-57.2800;-52.9200;-4.3600
1221.5040;-57.3300;-52.8600;-4.4700
1221.7040;-57.3500;-52.8100;-4.5400
1221.9030;-57.3800;-52.7700;-4.6100
1222.1020;-57.3900;-52.7100;-4.6800
1222.3010;-57.4300;-52.6400;-4.7900
1222.5000;-57.4400;-52.5700;-4.8700
1222.6990;-57.4200;-52.5100;-4.9100
1222.8980;-57.4300;-52.4500;-4.9800
1223.0970;-57.4300;-52.3900;-5.0400
1223.2970;-57.3900;-52.3000;-5.0900
1223.4960;-57.3500;-52.2300;-5.1200
1223.6950;-57.3200;-52.1700;-5.1500
1223.8940;-57.3100;-52.1000;-5.2100
1224.0930;-57.2300;-52.0400;-5.1900
1224.2920;-57.1700;-51.9700;-5.2000
1224.4910;-57.1200;-51.8900;-5.2300
1224.6900;-57.0800;-51.8400;-5.2400
1224.8890;-57.0300;-51.7600;-5.2700
1225.0890;-56.9600;-51.7200;-5.2400
1225.2880;-56.9100;-51.6500;-5.2600
1225.4870;-56.8700;-51.5800;-5.2900
1225.6860;-56.8300;-51.5300;-5.3000
1225.8850;-56.7800;-51.4900;-5.2900
1226.0840;-56.7200;-51.4400;-5.2800
1226.2830;-56.7000;-51.3800;-5.3200
1226.4820;-56.6500;-51.3200;-5.3300
1226.6810;-56.5900;-51.2900;-5.3000
1226.8810;-56.5300;-51.2400;-5.2900
1227.0800;-56.4800;-51.1900;-5.2900
1227.2790;-56.4100;-51.1300;-5.2800
1227.4780;-56.3200;-51.0800;-5.2400
1227.6770;-56.2100;-51.0300;-5.1800
1227.8760;-56.1200;-50.9700;-5.1500
1228.0750;-55.9800;-50.9200;-5.0600
1228.2740;-55.8200;-50.8600;-4.9600
1228.4740;-55.6200;-50.7900;-4.8300
1228.6730;-55.4800;-50.7300;-4.7500
1228.8720;-55.3200;-50.6700;-4.6500
1229.0710;-55.0900;-50.6100;-4.4800
1229.2700;-54.8900;-50.5200;-4.3700
1229.4690;-54.7000;-50.4400;-4.2600
1229.6680;-54.5000;-50.3800;-4.1200
1229.8670;-54.3000;-50.3000;-4.0000
1230.0660;-54.1000;-50.2300;-3.8700
1230.2660;-53.9400;-50.1400;-3.8000
1230.4650;-53.7600;-50.0500;-3.7100
1230.6640;-53.6000;-49.9900;-3.6100
1230.8630;-53.5000;-49.9200;-3.5800
1231.0620;-53.4000;-49.8500;-3.5500
1231.2610;-53.3300;-49.7800;-3.5500
1231.4600;-53.2600;-49.7200;-3.5400
1231.6590;-53.2200;-49.6600;-3.5600
1231.8580;-53.2200;-49.5900;-3.6300
1232.0580;-53.2200;-49.5400;-3.6800
1232.2570;-53.2200;-49.4700;-3.7500
1232.4560;-53.2700;-49.4200;-3.8500
1232.6550;-53.3200;-49.3600;-3.9600
1232.8540;-53.3800;-49.2900;-4.0900
1233.0530;-53.4300;-49.2600;-4.1700
1233.2520;-53.5200;-49.1900;-4.3300
1233.4510;-53.5900;-49.1300;-4.4600
1233.6500;-53.6600;-49.0800;-4.5800
1233.8500;-53.7200;-49.0100;-4.7100
1234.0490;-53.7800;-48.9700;-4.8100
1234.2480;-53.8400;-48.8900;-4.9500
1234.4470;-53.8400;-48.8300;-5.0100
1234.6460;-53.8400;-48.7700;-5.0700
1234.8450;-53.8500;-48.7000;-5.1500
1235.0440;-53.8000;-48.6300;-5.1700
1235.2430;-53.7200;-48.5500;-5.1700
1235.4430;-53.6100;-48.4800;-5.1300
1235.6420;-53.5100;-48.3900;-5.1200
1235.8410;-53.3700;-48.3000;-5.0700
1236.0400;-53.2000;-48.2300;-4.9700
1236.2390;-53.0300;-48.1300;-4.9000
1236.4380;-52.8600;-48.0600;-4.8000
1236.6370;-52.6900;-47.9700;-4.7200
1236.8360;-52.5000;-47.8700;-4.6300
1237.0350;-52.3400;-47.7900;-4.5500
1237.2350;-52.2000;-47.7000;-4.5000
1237.4340;-52.0300;-47.6200;-4.4100
1237.6330;-51.8900;-47.5300;-4.3600
1237.8320;-51.7900;-47.4600;-4.3300
1238.0310;-51.6800;-47.3700;-4.3100
1238.2300;-51.5900;-47.2900;-4.3000
1238.4290;-51.5000;-47.2200;-4.2800
1238.6280;-51.4500;-47.1400;-4.3100
1238.8270;-51.4000;-47.0600;-4.3400
1239.0270;-51.3400;-46.9800;-4.3600
1239.2260;-51.3100;-46.9000;-4.4100
1239.4250;-51.2800;-46.8300;-4.4500
1239.6240;-51.2500;-46.7400;-4.5100
1239.8230;-51.1900;-46.6600;-4.5300
1240.0220;-51.1600;-46.5700;-4.5900
1240.2210;-51.1300;-46.4800;-4.6500
1240.4200;-51.0500;-46.4000;-4.6500
1240.6200;-50.9700;-46.3000;-4.6700
1240.8190;-50.8900;-46.2000;-4.6900
1241.0180;-50.7900;-46.0800;-4.7100
1241.2170;-50.6700;-45.9700;-4.7000
1241.4160;-50.5200;-45.8400;-4.6800
1241.6150;-50.3800;-45.7400;-4.6400
1241.8140;-50.2300;-45.6300;-4.6000
1242.0130;-50.0500;-45.5000;-4.5500
1242.2120;-49.8900;-45.3900;-4.5000
1242.4120;-49.7200;-45.2600;-4.4600
1242.6110;-49.5300;-45.1300;-4.4000
1242.8100;-49.3500;-45.0100;-4.3400
1243.0090;-49.1700;-44.8600;-4.3100
1243.2080;-49.0200;-44.7500;-4.2700
1243.4070;-48.8500;-44.6100;-4.2400
1243.6060;-48.6800;-44.4700;-4.2100
1243.8050;-48.5500;-44.3600;-4.1900
1244.0040;-48.4100;-44.2200;-4.1900
1244.2040;-48.3000;-44.1000;-4.2000
1244.4030;-48.1800;-43.9700;-4.2100
1244.6020;-48.1000;-43.8300;-4.2700
1244.8010;-48.0100;-43.7200;-4.2900
1245.0000;-47.9300;-43.5900;-4.3400
1245.1990;-47.8800;-43.4700;-4.4100
1245.3980;-47.8200;-43.3300;-4.4900
1245.5970;-47.7600;-43.2000;-4.5600
1245.7970;-47.7000;-43.0700;-4.6300
1245.9960;-47.6400;-42.9300;-4.7100
1246.1950;-47.5900;-42.8000;-4.7900
1246.3940;-47.4900;-42.6500;-4.8400
1246.5930;-47.3900;-42.5000;-4.8900
1246.7920;-47.2700;-42.3700;-4.9000
1246.9910;-47.1100;-42.2000;-4.9100
1247.1900;-46.9600;-42.0600;-4.9000
1247.3890;-46.7700;-41.9100;-4.8600
1247.5890;-46.5500;-41.7400;-4.8100
1247.7880;-46.3100;-41.6000;-4.7100
1247.9870;-46.0600;-41.4300;-4.6300
1248.1860;-45.7600;-41.2800;-4.4800
1248.3850;-45.5300;-41.1100;-4.4200
1248.5840;-45.2600;-40.9400;-4.3200
1248.7830;-44.9900;-40.8000;-4.1900
1248.9820;-44.7200;-40.6400;-4.0800
1249.1810;-44.4500;-40.4900;-3.9600
1249.3810;-44.1900;-40.3300;-3.8600
1249.5800;-43.9500;-40.1700;-3.7800
1249.7790;-43.7000;-40.0300;-3.6700
1249.9780;-43.4700;-39.8600;-3.6100
1250.1770;-43.2500;-39.7200;-3.5300
1250.3760;-43.0400;-39.5700;-3.4700
1250.5750;-42.8400;-39.4100;-3.4300
1250.7740;-42.6300;-39.2700;-3.3600
1250.9740;-42.4500;-39.1200;-3.3300
1251.1730;-42.2600;-38.9800;-3.2800
1251.3720;-42.0500;-38.8100;-3.2400
1251.5710;-41.8800;-38.6600;-3.2200
1251.7700;-41.6700;-38.5100;-3.1600
1251.9690;-41.4700;-38.3400;-3.1300
1252.1680;-41.2600;-38.2000;-3.0600
1252.3670;-41.0500;-38.0200;-3.0300
1252.5660;-40.8500;-37.8700;-2.9800
1252.7660;-40.6300;-37.7000;-2.9300
1252.9650;-40.4300;-37.5400;-2.8900
1253.1640;-40.2200;-37.3800;-2.8400
1253.3630;-40.0100;-37.1900;-2.8200
1253.5620;-39.8400;-37.0300;-2.8100
1253.7610;-39.6600;-36.8600;-2.8000
1253.9600;-39.5300;-36.7000;-2.8300
1254.1590;-39.3900;-36.5500;-2.8400
1254.3580;-39.2800;-36.3700;-2.9100
1254.5580;-39.2300;-36.2200;-3.0100
1254.7570;-39.1800;-36.0500;-3.1300
1254.9560;-39.1900;-35.8700;-3.3200
1255.1550;-39.2300;-35.7500;-3.4800
1255.3540;-39.3100;-35.5900;-3.7200
1255.5530;-39.4500;-35.4700;-3.9800
1255.7520;-39.6200;-35.3100;-4.3100
1255.9510;-39.8500;-35.1600;-4.6900
1256.1500;-40.1200;-35.0200;-5.1000
1256.3500;-40.4300;-34.8700;-5.5600
1256.5490;-40.8100;-34.7500;-6.0600
1256.7480;-41.2000;-34.6000;-6.6000
1256.9470;-41.6300;-34.4600;-7.1700
1257.1460;-42.0400;-34.3100;-7.7300
1257.3450;-42.4300;-34.1600;-8.2700
1257.5440;-42.7600;-34.0300;-8.7300
1257.7430;-42.9600;-33.8700;-9.0900
1257.9430;-43.0300;-33.7300;-9.3000
1258.1420;-42.8900;-33.5700;-9.3200
1258.3410;-42.5800;-33.4200;-9.1600
1258.5400;-42.1200;-33.2800;-8.8400
1258.7390;-41.5400;-33.1100;-8.4300
1258.9380;-40.9100;-32.9600;-7.9500
1259.1370;-40.2500;-32.8000;-7.4500
1259.3360;-39.5900;-32.6400;-6.9500
1259.5350;-38.9600;-32.4900;-6.4700
1259.7350;-38.3600;-32.3200;-6.0400
1259.9340;-37.8300;-32.1700;-5.6600
1260.1330;-37.3300;-32.0200;-5.3100
1260.3320;-36.8800;-31.8600;-5.0200
1260.5310;-36.4800;-31.7200;-4.7600
1260.7300;-36.1300;-31.5600;-4.5700
1260.9290;-35.7700;-31.4100;-4.3600
1261.1280;-35.5500;-31.2500;-4.3000
1261.3270;-35.3400;-31.1100;-4.2300
1261.5270;-35.1500;-30.9800;-4.1700
1261.7260;-35.0000;-30.8300;-4.1700
1261.9250;-34.8500;-30.6900;-4.1600
1262.1240;-34.7400;-30.5400;-4.2000
1262.3230;-34.6400;-30.4000;-4.2400
1262.5220;-34.5400;-30.2700;-4.2700
1262.7210;-34.4500;-30.1300;-4.3200
1262.9200;-34.3400;-30.0000;-4.3400
1263.1200;-34.2100;-29.8500;-4.3600
1263.3190;-34.0700;-29.7100;-4.3600
1263.5180;-33.9000;-29.5800;-4.3200
1263.7170;-33.7200;-29.4400;-4.2800
1263.9160;-33.4900;-29.3000;-4.1900
1264.1150;-33.2400;-29.1500;-4.0900
1264.3140;-32.9800;-29.0100;-3.9700
1264.5130;-32.7000;-28.8800;-3.8200
1264.7120;-32.4300;-28.7300;-3.7000
1264.9120;-32.1200;-28.6100;-3.5100
1265.1110;-31.8200;-28.4600;-3.3600
1265.3100;-31.5400;-28.3200;-3.2200
1265.5090;-31.2600;-28.1900;-3.0700
1265.7080;-31.0100;-28.0500;-2.9600
1265.9070;-30.7400;-27.9300;-2.8100
1266.1060;-30.5100;-27.7800;-2.7300
1266.3050;-30.3000;-27.6600;-2.6400
1266.5040;-30.1000;-27.5400;-2.5600
1266.7040;-29.9400;-27.4100;-2.5300
1266.9030;-29.7600;-27.2900;-2.4700
1267.1020;-29.6100;-27.1600;-2.4500
1267.3010;-29.4800;-27.0400;-2.4400
1267.5000;-29.3600;-26.9300;-2.4300
1267.6990;-29.2600;-26.8000;-2.4600
1267.8980;-29.1300;-26.6900;-2.4400
1268.0970;-29.0400;-26.5700;-2.4700
1268.2970;-28.9400;-26.4600;-2.4800
1268.4960;-28.8400;-26.3500;-2.4900
1268.6950;-28.7500;-26.2300;-2.5200
1268.8940;-28.6300;-26.1200;-2.5100
1269.0930;-28.5300;-25.9700;-2.5600
1269.2920;-28.4300;-25.8800;-2.5500
1269.4910;-28.3300;-25.7600;-2.5700
1269.6900;-28.2500;-25.6600;-2.5900
1269.8890;-28.1400;-25.5300;-2.6100
1270.0890;-28.0600;-25.4100;-2.6500
1270.2880;-27.9900;-25.3100;-2.6800
1270.4870;-27.9500;-25.1900;-2.7600
1270.6860;-27.9200;-25.0800;-2.8400
1270.8850;-27.8900;-24.9600;-2.9300
1271.0840;-27.9000;-24.8500;-3.0500
1271.2830;-27.9300;-24.7400;-3.1900
1271.4820;-27.9800;-24.6200;-3.3600
1271.6810;-28.0800;-24.5200;-3.5600
1271.8810;-28.1900;-24.4100;-3.7800
1272.0800;-28.3300;-24.3000;-4.0300
1272.2790;-28.4900;-24.2000;-4.2900
1272.4780;-28.6600;-24.0800;-4.5800
1272.6770;-28.8700;-23.9900;-4.8800
1272.8760;-29.0700;-23.8700;-5.2000
1273.0750;-29.2800;-23.7700;-5.5100
1273.2740;-29.4500;-23.6700;-5.7800
1273.4740;-29.6000;-23.5600;-6.0400
1273.6730;-29.7000;-23.4600;-6.2400
1273.8720;-29.7200;-23.3500;-6.3700
1274.0710;-29.6800;-23.2400;-6.4400
1274.2700;-29.5400;-23.1400;-6.4000
1274.4690;-29.3200;-23.0300;-6.2900
1274.6680;-29.0400;-22.9400;-6.1000
1274.8670;-28.6700;-22.8300;-5.8400
1275.0660;-28.2800;-22.7300;-5.5500
1275.2660;-27.8400;-22.6300;-5.2100
1275.4650;-27.3900;-22.5300;-4.8600
1275.6640;-26.9300;-22.4400;-4.4900
1275.8630;-26.4700;-22.3400;-4.1300
1276.0620;-25.9700;-22.2500;-3.7200
1276.2610;-25.6200;-22.1600;-3.4600
1276.4600;-25.2300;-22.0700;-3.1600
1276.6590;-24.8400;-21.9900;-2.8500
1276.8580;-24.4900;-21.8900;-2.6000
1277.0580;-24.1500;-21.8200;-2.3300
1277.2570;-23.8500;-21.7300;-2.1200
1277.4560;-23.5900;-21.6500;-1.9400
1277.6550;-23.3200;-21.5900;-1.7300
1277.8540;-23.1000;-21.5000;-1.6000
1278.0530;-22.8900;-21.4300;-1.4600
1278.2520;-22.7100;-21.3400;-1.3700
1278.4510;-22.5600;-21.2700;-1.2900
1278.6500;-22.4100;-21.2000;-1.2100
1278.8500;-22.3000;-21.1100;-1.1900
1279.0490;-22.2000;-21.0400;-1.1600
1279.2480;-22.1300;-20.9500;-1.1800
1279.4470;-22.0800;-20.8800;-1.2000
1279.6460;-22.0400;-20.8000;-1.2400
1279.8450;-22.0400;-20.7100;-1.3300
1280.0440;-22.0300;-20.6500;-1.3800
1280.2430;-22.0600;-20.5500;-1.5100
1280.4430;-22.1200;-20.4700;-1.6500
1280.6420;-22.1800;-20.3900;-1.7900
1280.8410;-22.2900;-20.3000;-1.9900
1281.0400;-22.3900;-20.2400;-2.1500
1281.2390;-22.5400;-20.1500;-2.3900
1281.4380;-22.7000;-20.0700;-2.6300
1281.6370;-22.8800;-19.9900;-2.8900
1281.8360;-23.0900;-19.9100;-3.1800
1282.0350;-23.3100;-19.8400;-3.4700
1282.2350;-23.5600;-19.7500;-3.8100
1282.4340;-23.8200;-19.6900;-4.1300
1282.6330;-24.0900;-19.6200;-4.4700
1282.8320;-24.3700;-19.5400;-4.8300
1283.0310;-24.6300;-19.4900;-5.1400
1283.2300;-24.8800;-19.4100;-5.4700
1283.4290;-25.1000;-19.3500;-5.7500
1283.6280;-25.2800;-19.2700;-6.0100
1283.8270;-25.4200;-19.2000;-6.2200
1284.0270;-25.4800;-19.1500;-6.3300
1284.2260;-25.5000;-19.0800;-6.4200
1284.4250;-25.4300;-19.0300;-6.4000
1284.6240;-25.3000;-18.9500;-6.3500
1284.8230;-25.1400;-18.8900;-6.2500
1285.0220;-24.9000;-18.8400;-6.0600
1285.2210;-24.6600;-18.7700;-5.8900
1285.4200;-24.3800;-18.7200;-5.6600
1285.6200;-24.0900;-18.6400;-5.4500
1285.8190;-23.8100;-18.5900;-5.2200
1286.0180;-23.5300;-18.5300;-5.0000
1286.2170;-23.2700;-18.4700;-4.8000
1286.4160;-23.0000;-18.4200;-4.5800
1286.6150;-22.7500;-18.3600;-4.3900
1286.8140;-22.5200;-18.3100;-4.2100
1287.0130;-22.2900;-18.2600;-4.0300
1287.2120;-22.0900;-18.2000;-3.8900
1287.4120;-21.8700;-18.1700;-3.7000
1287.6110;-21.6600;-18.1100;-3.5500
1287.8100;-21.4600;-18.0700;-3.3900
1288.0090;-21.2400;-18.0200;-3.2200
1288.2080;-21.0500;-17.9700;-3.0800
1288.4070;-20.8200;-17.9400;-2.8800
1288.6060;-20.6000;-17.8900;-2.7100
1288.8050;-20.3800;-17.8600;-2.5200
1289.0040;-20.1400;-17.8100;-2.3300
1289.2040;-19.9300;-17.7700;-2.1600
1289.4030;-19.6900;-17.7400;-1.9500
1289.6020;-19.4800;-17.7000;-1.7800
1289.8010;-19.2600;-17.6700;-1.5900
1290.0000;-19.0500;-17.6200;-1.4300
1290.1990;-18.8700;-17.5800;-1.2900
1290.3980;-18.6900;-17.5500;-1.1400
1290.5970;-18.5600;-17.5200;-1.0400
1290.7970;-18.4200;-17.4900;-0.9300
1290.9960;-18.3000;-17.4300;-0.8700
1291.1950;-18.2300;-17.3900;-0.8400
1291.3940;-18.1700;-17.3500;-0.8200
1291.5930;-18.1600;-17.3000;-0.8600
1291.7920;-18.1600;-17.2700;-0.8900
1291.9910;-18.2100;-17.2100;-1.0000
1292.1900;-18.3000;-17.1800;-1.1200
1292.3890;-18.4100;-17.1300;-1.2800
1292.5890;-18.5700;-17.0800;-1.4900
1292.7880;-18.7500;-17.0500;-1.7000
1292.9870;-18.9800;-17.0000;-1.9800
1293.1860;-19.2400;-16.9700;-2.2700
1293.3850;-19.5300;-16.9200;-2.6100
1293.5840;-19.8500;-16.8700;-2.9800
1293.7830;-20.2000;-16.8400;-3.3600
1293.9820;-20.5900;-16.8000;-3.7900
1294.1810;-20.9900;-16.7900;-4.2000
1294.3810;-21.4100;-16.7400;-4.6700
1294.5800;-21.8300;-16.7000;-5.1300
1294.7790;-22.2700;-16.6700;-5.6000
1294.9780;-22.7300;-16.6400;-6.0900
1295.1770;-23.1600;-16.6200;-6.5400
1295.3760;-23.6000;-16.5900;-7.0100
1295.5750;-24.0300;-16.5600;-7.4700
1295.7740;-24.4500;-16.5200;-7.9300
1295.9740;-24.8800;-16.4900;-8.3900
1296.1730;-25.3000;-16.4700;-8.8300
1296.3720;-25.7500;-16.4400;-9.3100
1296.5710;-26.2000;-16.4100;-9.7900
1296.7700;-26.6900;-16.3800;-10.3100
1296.9690;-27.2400;-16.3600;-10.8800
1297.1680;-27.8300;-16.3400;-11.4900
1297.3670;-28.6100;-16.3100;-12.3000
1297.5660;-29.1500;-16.2900;-12.8600
1297.7660;-29.8500;-16.2600;-13.5900
1297.9650;-30.4400;-16.2400;-14.2000
1298.1640;-30.8500;-16.2100;-14.6400
1298.3630;-30.8900;-16.1900;-14.7000
1298.5620;-30.4800;-16.1800;-14.3000
1298.7610;-29.6900;-16.1500;-13.5400
1298.9600;-28.6300;-16.1400;-12.4900
1299.1590;-27.4900;-16.1200;-11.3700
1299.3580;-26.3200;-16.1100;-10.2100
1299.5580;-25.0300;-16.0900;-8.9400
1299.7570;-24.1800;-16.0800;-8.1000
1299.9560;-23.2400;-16.0800;-7.1600
1300.1550;-22.4000;-16.0700;-6.3300
1300.3540;-21.6200;-16.0700;-5.5500
1300.5530;-20.9400;-16.0400;-4.9000
1300.7520;-20.3200;-16.0400;-4.2800
1300.9510;-19.7800;-16.0400;-3.7400
1301.1500;-19.3300;-16.0400;-3.2900
1301.3500;-18.9200;-16.0500;-2.8700
1301.5490;-18.6000;-16.0400;-2.5600
1301.7480;-18.3200;-16.0400;-2.2800
1301.9470;-18.1000;-16.0400;-2.0600
1302.1460;-17.9500;-16.0400;-1.9100
1302.3450;-17.8300;-16.0500;-1.7800
1302.5440;-17.8000;-16.0500;-1.7500
1302.7430;-17.7900;-16.0600;-1.7300
1302.9430;-17.8400;-16.0500;-1.7900
1303.1420;-17.9500;-16.0600;-1.8900
1303.3410;-18.0900;-16.0800;-2.0100
1303.5400;-18.3000;-16.0800;-2.2200
1303.7390;-18.5300;-16.0900;-2.4400
1303.9380;-18.8100;-16.0900;-2.7200
1304.1370;-19.1300;-16.1000;-3.0300
1304.3360;-19.4600;-16.1200;-3.3400
1304.5350;-19.8400;-16.1300;-3.7100
1304.7350;-20.1900;-16.1500;-4.0400
1304.9340;-20.5400;-16.1500;-4.3900
1305.1330;-20.8600;-16.1700;-4.6900
1305.3320;-21.1300;-16.1900;-4.9400
1305.5310;-21.3700;-16.2100;-5.1600
1305.7300;-21.5100;-16.2300;-5.2800
1305.9290;-21.5900;-16.2400;-5.3500
1306.1280;-21.5900;-16.2600;-5.3300
1306.3270;-21.5300;-16.2800;-5.2500
1306.5270;-21.4500;-16.3000;-5.1500
1306.7260;-21.3200;-16.3400;-4.9800
1306.9250;-21.2100;-16.3500;-4.8600
1307.1240;-21.0900;-16.3800;-4.7100
1307.3230;-21.0000;-16.3900;-4.6100
1307.5220;-20.9700;-16.4200;-4.5500
1307.7210;-20.9600;-16.4600;-4.5000
1307.9200;-21.0300;-16.4700;-4.5600
1308.1200;-21.1500;-16.5100;-4.6400
1308.3190;-21.3500;-16.5200;-4.8300
1308.5180;-21.6200;-16.5500;-5.0700
1308.7170;-21.9700;-16.5700;-5.4000
1308.9160;-22.4400;-16.5900;-5.8500
1309.1150;-22.9900;-16.6200;-6.3700
1309.3140;-23.6700;-16.6300;-7.0400
1309.5130;-24.4900;-16.6700;-7.8200
1309.7120;-25.4400;-16.7000;-8.7400
1309.9120;-26.5800;-16.7100;-9.8700
