Wavelength;Intensity_Meas;Intensity_Ref;Difference_dB
1200.0000;-61.5400;-57.0400;-4.5000
1200.1990;-61.4800;-57.0100;-4.4700
1200.3980;-61.4800;-56.9700;-4.5100
1200.5970;-61.4700;-56.9600;-4.5100
1200.7970;-61.4200;-56.9200;-4.5000
1200.9960;-61.3900;-56.9000;-4.4900
1201.1950;-61.3200;-56.8600;-4.4600
1201.3940;-61.2700;-56.8000;-4.4700
1201.5930;-61.2500;-56.7800;-4.4700
1201.7920;-61.1300;-56.7400;-4.3900
1201.9910;-61.1100;-56.6800;-4.4300
1202.1900;-61.0900;-56.6500;-4.4400
1202.3890;-61.0100;-56.5600;-4.4500
1202.5890;-60.9700;-56.5200;-4.4500
1202.7880;-60.9100;-56.4800;-4.4300
1202.9870;-60.9100;-56.4300;-4.4800
1203.1860;-60.8400;-56.3600;-4.4800
1203.3850;-60.7800;-56.3000;-4.4800
1203.5840;-60.7400;-56.3000;-4.4400
1203.7830;-60.7000;-56.2500;-4.4500
1203.9820;-60.6600;-56.2000;-4.4600
1204.1810;-60.6300;-56.1500;-4.4800
1204.3810;-60.5700;-56.1100;-4.4600
1204.5800;-60.5500;-56.1100;-4.4400
1204.7790;-60.5100;-56.0600;-4.4500
1204.9780;-60.4600;-56.0100;-4.4500
1205.1770;-60.4100;-56.0000;-4.4100
1205.3760;-60.3200;-55.9800;-4.3400
1205.5750;-60.3100;-55.9600;-4.3500
1205.7740;-60.2800;-55.9300;-4.3500
1205.9740;-60.2300;-55.9100;-4.3200
1206.1730;-60.1700;-55.9200;-4.2500
1206.3720;-60.1700;-55.8800;-4.2900
1206.5710;-60.1800;-55.8700;-4.3100
1206.7700;-60.1200;-55.8300;-4.2900
1206.9690;-60.0900;-55.8100;-4.2800
1207.1680;-60.0700;-55.8300;-4.2400
1207.3670;-60.0600;-55.7800;-4.2800
1207.5660;-60.0500;-55.7300;-4.3200
1207.7660;-60.0100;-55.7100;-4.3000
1207.9650;-60.0100;-55.6900;-4.3200
1208.1640;-59.9900;-55.6500;-4.3400
1208.3630;-59.9800;-55.5800;-4.4000
1208.5620;-59.9400;-55.5500;-4.3900
1208.7610;-59.8900;-55.5300;-4.3600
1208.9600;-59.8700;-55.4700;-4.4000
1209.1590;-59.8500;-55.4200;-4.4300
1209.3580;-59.7700;-55.3500;-4.4200
1209.5580;-59.7400;-55.3200;-4.4200
1209.7570;-59.7000;-55.2900;-4.4100
1209.9560;-59.6400;-55.2200;-4.4200
1210.1550;-59.5900;-55.1700;-4.4200
1210.3540;-59.4800;-55.1200;-4.3600
1210.5530;-59.4600;-55.0900;-4.3700
1210.7520;-59.4200;-55.0300;-4.3900
1210.9510;-59.3400;-54.9700;-4.3700
1211.1500;-59.2600;-54.9500;-4.3100
1211.3500;-59.2100;-54.9100;-4.3000
1211.5490;-59.1800;-54.8600;-4.3200
1211.7480;-59.1200;-54.8200;-4.3000
1211.9470;-59.0300;-54.7900;-4.2400
1212.1460;-58.9800;-54.7700;-4.2100
1212.3450;-58.9600;-54.7300;-4.2300
1212.5440;-58.9300;-54.6800;-4.2500
1212.7430;-58.8500;-54.6700;-4.1800
1212.9430;-58.8100;-54.6400;-4.1700
1213.1420;-58.8100;-54.6200;-4.1900
1213.3410;-58.8000;-54.5800;-4.2200
1213.5400;-58.7600;-54.5600;-4.2000
1213.7390;-58.6900;-54.5500;-4.1400
1213.9380;-58.7200;-54.5200;-4.2000
1214.1370;-58.7200;-54.4700;-4.2500
1214.3360;-58.6500;-54.4200;-4.2300
1214.5350;-58.6400;-54.4100;-4.2300
1214.7350;-58.6200;-54.3900;-4.2300
1214.9340;-58.6000;-54.3300;-4.2700
1215.1330;-58.5500;-54.2800;-4.2700
1215.3320;-58.4800;-54.2400;-4.2400
1215.5310;-58.4700;-54.2100;-4.2600
1215.7300;-58.4300;-54.1500;-4.2800
1215.9290;-58.3800;-54.0900;-4.2900
1216.1280;-58.3000;-54.0500;-4.2500
1216.3270;-58.2300;-53.9900;-4.2400
1216.5270;-58.2100;-53.9400;-4.2700
1216.7260;-58.1500;-53.8800;-4.2700
1216.9250;-58.0500;-53.8200;-4.2300
1217.1240;-57.9700;-53.7900;-4.1800
1217.3230;-57.9100;-53.7100;-4.2000
1217.5220;-57.8700;-53.6500;-4.2200
1217.7210;-57.7600;-53.6100;-4.1500
1217.9200;-57.6800;-53.5600;-4.1200
1218.1200;-57.6300;-53.5200;-4.1100
1218.3190;-57.5700;-53.4500;-4.1200
1218.5180;-57.5000;-53.4300;-4.0700
1218.7170;-57.4200;-53.4000;-4.0200
1218.9160;-57.3800;-53.3500;-4.0300
1219.1150;-57.3500;-53.3100;-4.0400
1219.3140;-57.2800;-53.2700;-4.0100
1219.5130;-57.2300;-53.2500;-3.9800
1219.7120;-57.2100;-53.2200;-3.9900
1219.9120;-57.1900;-53.1700;-4.0200
1220.1110;-57.1600;-53.1600;-4.0000
1220.3100;-57.1200;-53.1200;-4.0000
1220.5090;-57.1400;-53.0900;-4.0500
1220.7080;-57.1400;-53.0400;-4.1000
1220.9070;-57.1200;-53.0000;-4.1200
1221.1060;-57.1000;-52.9700;-4.1300
1221.3050;-57.1000;-52.9200;-4.1800
1221.5040;-57.1100;-52.8600;-4.2500
1221.7040;-57.1000;-52.8100;-4.2900
1221.9030;-57.0800;-52.7700;-4.3100
1222.1020;-57.0700;-52.7100;-4.3600
1222.3010;-57.0600;-52.6400;-4.4200
1222.5000;-57.0600;-52.5700;-4.4900
1222.6990;-56.9900;-52.5100;-4.4800
1222.8980;-56.9900;-52.4500;-4.5400
1223.0970;-56.9700;-52.3900;-4.5800
1223.2970;-56.9200;-52.3000;-4.6200
1223.4960;-56.8700;-52.2300;-4.6400
1223.6950;-56.8200;-52.1700;-4.6500
1223.8940;-56.8100;-52.1000;-4.7100
1224.0930;-56.7700;-52.0400;-4.7300
1224.2920;-56.7200;-51.9700;-4.7500
1224.4910;-56.6800;-51.8900;-4.7900
1224.6900;-56.6600;-51.8400;-4.8200
1224.8890;-56.6100;-51.7600;-4.8500
1225.0890;-56.5700;-51.7200;-4.8500
1225.2880;-56.5100;-51.6500;-4.8600
1225.4870;-56.4800;-51.5800;-4.9000
1225.6860;-56.4500;-51.5300;-4.9200
1225.8850;-56.3800;-51.4900;-4.8900
1226.0840;-56.3300;-51.4400;-4.8900
1226.2830;-56.2700;-51.3800;-4.8900
1226.4820;-56.2100;-51.3200;-4.8900
1226.6810;-56.1200;-51.2900;-4.8300
1226.8810;-56.0400;-51.2400;-4.8000
1227.0800;-55.9600;-51.1900;-4.7700
1227.2790;-55.8700;-51.1300;-4.7400
1227.4780;-55.7100;-51.0800;-4.6300
1227.6770;-55.6200;-51.0300;-4.5900
1227.8760;-55.5300;-50.9700;-4.5600
1228.0750;-55.4000;-50.9200;-4.4800
1228.2740;-55.2600;-50.8600;-4.4000
1228.4740;-55.1300;-50.7900;-4.3400
1228.6730;-55.0200;-50.7300;-4.2900
1228.8720;-54.9100;-50.6700;-4.2400
1229.0710;-54.7600;-50.6100;-4.1500
1229.2700;-54.6500;-50.5200;-4.1300
1229.4690;-54.5500;-50.4400;-4.1100
1229.6680;-54.4400;-50.3800;-4.0600
1229.8670;-54.3400;-50.3000;-4.0400
1230.0660;-54.2600;-50.2300;-4.0300
1230.2660;-54.2100;-50.1400;-4.0700
1230.4650;-54.1600;-50.0500;-4.1100
1230.6640;-54.1100;-49.9900;-4.1200
1230.8630;-54.1200;-49.9200;-4.2000
1231.0620;-54.1300;-49.8500;-4.2800
1231.2610;-54.1600;-49.7800;-4.3800
1231.4600;-54.2100;-49.7200;-4.4900
1231.6590;-54.2600;-49.6600;-4.6000
1231.8580;-54.3400;-49.5900;-4.7500
1232.0580;-54.4100;-49.5400;-4.8700
1232.2570;-54.4700;-49.4700;-5.0000
1232.4560;-54.5800;-49.4200;-5.1600
1232.6550;-54.6700;-49.3600;-5.3100
1232.8540;-54.7300;-49.2900;-5.4400
1233.0530;-54.7800;-49.2600;-5.5200
1233.2520;-54.8200;-49.1900;-5.6300
1233.4510;-54.8500;-49.1300;-5.7200
1233.6500;-54.8300;-49.0800;-5.7500
1233.8500;-54.7900;-49.0100;-5.7800
1234.0490;-54.7300;-48.9700;-5.7600
1234.2480;-54.6300;-48.8900;-5.7400
1234.4470;-54.4900;-48.8300;-5.6600
1234.6460;-54.3400;-48.7700;-5.5700
1234.8450;-54.1900;-48.7000;-5.4900
1235.0440;-54.0000;-48.6300;-5.3700
1235.2430;-53.7900;-48.5500;-5.2400
1235.4430;-53.5800;-48.4800;-5.1000
1235.6420;-53.3900;-48.3900;-5.0000
1235.8410;-53.1900;-48.3000;-4.8900
1236.0400;-52.9700;-48.2300;-4.7400
1236.2390;-52.7800;-48.1300;-4.6500
1236.4380;-52.6200;-48.0600;-4.5600
1236.6370;-52.4600;-47.9700;-4.4900
1236.8360;-52.3100;-47.8700;-4.4400
1237.0350;-52.1800;-47.7900;-4.3900
1237.2350;-52.0900;-47.7000;-4.3900
1237.4340;-51.9700;-47.6200;-4.3500
1237.6330;-51.8900;-47.5300;-4.3600
1237.8320;-51.8600;-47.4600;-4.4000
1238.0310;-51.8000;-47.3700;-4.4300
1238.2300;-51.7600;-47.2900;-4.4700
1238.4290;-51.7200;-47.2200;-4.5000
1238.6280;-51.7200;-47.1400;-4.5800
1238.8270;-51.7200;-47.0600;-4.6600
1239.0270;-51.6800;-46.9800;-4.7000
1239.2260;-51.6600;-46.9000;-4.7600
1239.4250;-51.6500;-46.8300;-4.8200
1239.6240;-51.6100;-46.7400;-4.8700
1239.8230;-51.5600;-46.6600;-4.9000
1240.0220;-51.5100;-46.5700;-4.9400
1240.2210;-51.4500;-46.4800;-4.9700
1240.4200;-51.3500;-46.4000;-4.9500
1240.6200;-51.2300;-46.3000;-4.9300
1240.8190;-51.1300;-46.2000;-4.9300
1241.0180;-50.9900;-46.0800;-4.9100
1241.2170;-50.8500;-45.9700;-4.8800
1241.4160;-50.6900;-45.8400;-4.8500
1241.6150;-50.5400;-45.7400;-4.8000
1241.8140;-50.4100;-45.6300;-4.7800
1242.0130;-50.2500;-45.5000;-4.7500
1242.2120;-50.1200;-45.3900;-4.7300
1242.4120;-50.0000;-45.2600;-4.7400
1242.6110;-49.8600;-45.1300;-4.7300
1242.8100;-49.7500;-45.0100;-4.7400
1243.0090;-49.6300;-44.8600;-4.7700
1243.2080;-49.5600;-44.7500;-4.8100
1243.4070;-49.4700;-44.6100;-4.8600
1243.6060;-49.3900;-44.4700;-4.9200
1243.8050;-49.3500;-44.3600;-4.9900
1244.0040;-49.2900;-44.2200;-5.0700
1244.2040;-49.2400;-44.1000;-5.1400
1244.4030;-49.2100;-43.9700;-5.2400
1244.6020;-49.1800;-43.8300;-5.3500
1244.8010;-49.1700;-43.7200;-5.4500
1245.0000;-49.1400;-43.5900;-5.5500
1245.1990;-49.1500;-43.4700;-5.6800
1245.3980;-49.1500;-43.3300;-5.8200
1245.5970;-49.1300;-43.2000;-5.9300
1245.7970;-49.1400;-43.0700;-6.0700
1245.9960;-49.1300;-42.9300;-6.2000
1246.1950;-49.1400;-42.8000;-6.3400
1246.3940;-49.1300;-42.6500;-6.4800
1246.5930;-49.1100;-42.5000;-6.6100
1246.7920;-49.1100;-42.3700;-6.7400
1246.9910;-49.0500;-42.2000;-6.8500
1247.1900;-49.0100;-42.0600;-6.9500
1247.3890;-48.9400;-41.9100;-7.0300
1247.5890;-48.8500;-41.7400;-7.1100
1247.7880;-48.7400;-41.6000;-7.1400
1247.9870;-48.5900;-41.4300;-7.1600
1248.1860;-48.4600;-41.2800;-7.1800
1248.3850;-48.2800;-41.1100;-7.1700
1248.5840;-48.0700;-40.9400;-7.1300
1248.7830;-47.8800;-40.8000;-7.0800
1248.9820;-47.6700;-40.6400;-7.0300
1249.1810;-47.4600;-40.4900;-6.9700
1249.3810;-47.2300;-40.3300;-6.9000
1249.5800;-47.0100;-40.1700;-6.8400
1249.7790;-46.8000;-40.0300;-6.7700
1249.9780;-46.5700;-39.8600;-6.7100
1250.1770;-46.3800;-39.7200;-6.6600
1250.3760;-46.1700;-39.5700;-6.6000
1250.5750;-45.9500;-39.4100;-6.5400
1250.7740;-45.7200;-39.2700;-6.4500
1250.9740;-45.5700;-39.1200;-6.4500
1251.1730;-45.3700;-38.9800;-6.3900
1251.3720;-45.1400;-38.8100;-6.3300
1251.5710;-44.9400;-38.6600;-6.2800
1251.7700;-44.7000;-38.5100;-6.1900
1251.9690;-44.4400;-38.3400;-6.1000
1252.1680;-44.1600;-38.2000;-5.9600
1252.3670;-43.8700;-38.0200;-5.8500
1252.5660;-43.5800;-37.8700;-5.7100
1252.7660;-43.2200;-37.7000;-5.5200
1252.9650;-42.8900;-37.5400;-5.3500
1253.1640;-42.5200;-37.3800;-5.1400
1253.3630;-42.1300;-37.1900;-4.9400
1253.5620;-41.7700;-37.0300;-4.7400
1253.7610;-41.3700;-36.8600;-4.5100
1253.9600;-41.0000;-36.7000;-4.3000
1254.1590;-40.6200;-36.5500;-4.0700
1254.3580;-40.2500;-36.3700;-3.8800
1254.5580;-39.9300;-36.2200;-3.7100
1254.7570;-39.5800;-36.0500;-3.5300
1254.9560;-39.2700;-35.8700;-3.4000
1255.1550;-38.9900;-35.7500;-3.2400
1255.3540;-38.7100;-35.5900;-3.1200
1255.5530;-38.4800;-35.4700;-3.0100
1255.7520;-38.2500;-35.3100;-2.9400
1255.9510;-38.0600;-35.1600;-2.9000
1256.1500;-37.8900;-35.0200;-2.8700
1256.3500;-37.7300;-34.8700;-2.8600
1256.5490;-37.6200;-34.7500;-2.8700
1256.7480;-37.5000;-34.6000;-2.9000
1256.9470;-37.4100;-34.4600;-2.9500
1257.1460;-37.3300;-34.3100;-3.0200
1257.3450;-37.2700;-34.1600;-3.1100
1257.5440;-37.2500;-34.0300;-3.2200
1257.7430;-37.2100;-33.8700;-3.3400
1257.9430;-37.2000;-33.7300;-3.4700
1258.1420;-37.1900;-33.5700;-3.6200
1258.3410;-37.1800;-33.4200;-3.7600
1258.5400;-37.1900;-33.2800;-3.9100
1258.7390;-37.1800;-33.1100;-4.0700
1258.9380;-37.1900;-32.9600;-4.2300
1259.1370;-37.1900;-32.8000;-4.3900
1259.3360;-37.1800;-32.6400;-4.5400
1259.5350;-37.1900;-32.4900;-4.7000
1259.7350;-37.1800;-32.3200;-4.8600
1259.9340;-37.1800;-32.1700;-5.0100
1260.1330;-37.1700;-32.0200;-5.1500
1260.3320;-37.1700;-31.8600;-5.3100
1260.5310;-37.1800;-31.7200;-5.4600
1260.7300;-37.1700;-31.5600;-5.6100
1260.9290;-37.1700;-31.4100;-5.7600
1261.1280;-37.1500;-31.2500;-5.9000
1261.3270;-37.1300;-31.1100;-6.0200
1261.5270;-37.1000;-30.9800;-6.1200
1261.7260;-37.0200;-30.8300;-6.1900
1261.9250;-36.9100;-30.6900;-6.2200
1262.1240;-36.7400;-30.5400;-6.2000
1262.3230;-36.5200;-30.4000;-6.1200
1262.5220;-36.2600;-30.2700;-5.9900
1262.7210;-35.8600;-30.1300;-5.7300
1262.9200;-35.5400;-30.0000;-5.5400
1263.1200;-35.1000;-29.8500;-5.2500
1263.3190;-34.6400;-29.7100;-4.9300
1263.5180;-34.1400;-29.5800;-4.5600
1263.7170;-33.6300;-29.4400;-4.1900
1263.9160;-33.1100;-29.3000;-3.8100
1264.1150;-32.5900;-29.1500;-3.4400
1264.3140;-32.1000;-29.0100;-3.0900
1264.5130;-31.6200;-28.8800;-2.7400
1264.7120;-31.1600;-28.7300;-2.4300
1264.9120;-30.7200;-28.6100;-2.1100
1265.1110;-30.3200;-28.4600;-1.8600
1265.3100;-29.9600;-28.3200;-1.6400
1265.5090;-29.6300;-28.1900;-1.4400
1265.7080;-29.3500;-28.0500;-1.3000
1265.9070;-29.0900;-27.9300;-1.1600
1266.1060;-28.8700;-27.7800;-1.0900
1266.3050;-28.7000;-27.6600;-1.0400
1266.5040;-28.5600;-27.5400;-1.0200
1266.7040;-28.4600;-27.4100;-1.0500
1266.9030;-28.3900;-27.2900;-1.1000
1267.1020;-28.3500;-27.1600;-1.1900
1267.3010;-28.3600;-27.0400;-1.3200
1267.5000;-28.3900;-26.9300;-1.4600
1267.6990;-28.4400;-26.8000;-1.6400
1267.8980;-28.5100;-26.6900;-1.8200
1268.0970;-28.6100;-26.5700;-2.0400
1268.2970;-28.7300;-26.4600;-2.2700
1268.4960;-28.8400;-26.3500;-2.4900
1268.6950;-28.9600;-26.2300;-2.7300
1268.8940;-29.0700;-26.1200;-2.9500
1269.0930;-29.1800;-25.9700;-3.2100
1269.2920;-29.2900;-25.8800;-3.4100
1269.4910;-29.3800;-25.7600;-3.6200
1269.6900;-29.4600;-25.6600;-3.8000
1269.8890;-29.5100;-25.5300;-3.9800
1270.0890;-29.5700;-25.4100;-4.1600
1270.2880;-29.6400;-25.3100;-4.3300
1270.4870;-29.7000;-25.1900;-4.5100
1270.6860;-29.7900;-25.0800;-4.7100
1270.8850;-29.8800;-24.9600;-4.9200
1271.0840;-30.0100;-24.8500;-5.1600
1271.2830;-30.1900;-24.7400;-5.4500
1271.4820;-30.4200;-24.6200;-5.8000
1271.6810;-30.7200;-24.5200;-6.2000
1271.8810;-31.0800;-24.4100;-6.6700
1272.0800;-31.5400;-24.3000;-7.2400
1272.2790;-32.1100;-24.2000;-7.9100
1272.4780;-32.7900;-24.0800;-8.7100
1272.6770;-33.6300;-23.9900;-9.6400
1272.8760;-34.6100;-23.8700;-10.7400
1273.0750;-35.7600;-23.7700;-11.9900
1273.2740;-37.0200;-23.6700;-13.3500
1273.4740;-38.4900;-23.5600;-14.9300
1273.6730;-39.0700;-23.4600;-15.6100
1273.8720;-38.9500;-23.3500;-15.6000
1274.0710;-37.8700;-23.2400;-14.6300
1274.2700;-36.2700;-23.1400;-13.1300
1274.4690;-34.3300;-23.0300;-11.3000
1274.6680;-32.9900;-22.9400;-10.0500
1274.8670;-31.5800;-22.8300;-8.7500
1275.0660;-30.3100;-22.7300;-7.5800
1275.2660;-29.2000;-22.6300;-6.5700
1275.4650;-28.2300;-22.5300;-5.7000
1275.6640;-27.3600;-22.4400;-4.9200
1275.8630;-26.6100;-22.3400;-4.2700
1276.0620;-25.8300;-22.2500;-3.5800
1276.2610;-25.3600;-22.1600;-3.2000
1276.4600;-24.8600;-22.0700;-2.7900
1276.6590;-24.4200;-21.9900;-2.4300
1276.8580;-24.0700;-21.8900;-2.1800
1277.0580;-23.7700;-21.8200;-1.9500
1277.2570;-23.5500;-21.7300;-1.8200
1277.4560;-23.3600;-21.6500;-1.7100
1277.6550;-23.2300;-21.5900;-1.6400
1277.8540;-23.1500;-21.5000;-1.6500
1278.0530;-23.1100;-21.4300;-1.6800
1278.2520;-23.1300;-21.3400;-1.7900
1278.4510;-23.1600;-21.2700;-1.8900
1278.6500;-23.2300;-21.2000;-2.0300
1278.8500;-23.3200;-21.1100;-2.2100
1279.0490;-23.4200;-21.0400;-2.3800
1279.2480;-23.5300;-20.9500;-2.5800
1279.4470;-23.6200;-20.8800;-2.7400
1279.6460;-23.7000;-20.8000;-2.9000
1279.8450;-23.7400;-20.7100;-3.0300
1280.0440;-23.7300;-20.6500;-3.0800
1280.2430;-23.6900;-20.5500;-3.1400
1280.4430;-23.5700;-20.4700;-3.1000
1280.6420;-23.4200;-20.3900;-3.0300
1280.8410;-23.2100;-20.3000;-2.9100
1281.0400;-22.9600;-20.2400;-2.7200
1281.2390;-22.7100;-20.1500;-2.5600
1281.4380;-22.4200;-20.0700;-2.3500
1281.6370;-22.1500;-19.9900;-2.1600
1281.8360;-21.8700;-19.9100;-1.9600
1282.0350;-21.6200;-19.8400;-1.7800
1282.2350;-21.4100;-19.7500;-1.6600
1282.4340;-21.2200;-19.6900;-1.5300
1282.6330;-21.1000;-19.6200;-1.4800
1282.8320;-20.9900;-19.5400;-1.4500
1283.0310;-20.9400;-19.4900;-1.4500
1283.2300;-20.9600;-19.4100;-1.5500
1283.4290;-21.0100;-19.3500;-1.6600
1283.6280;-21.1500;-19.2700;-1.8800
1283.8270;-21.3300;-19.2000;-2.1300
1284.0270;-21.5900;-19.1500;-2.4400
1284.2260;-21.9300;-19.0800;-2.8500
1284.4250;-22.3400;-19.0300;-3.3100
1284.6240;-22.8700;-18.9500;-3.9200
1284.8230;-23.4800;-18.8900;-4.5900
1285.0220;-24.2000;-18.8400;-5.3600
1285.2210;-25.0800;-18.7700;-6.3100
1285.4200;-26.0800;-18.7200;-7.3600
1285.6200;-27.2600;-18.6400;-8.6200
1285.8190;-28.8500;-18.5900;-10.2600
1286.0180;-30.0200;-18.5300;-11.4900
1286.2170;-31.3000;-18.4700;-12.8300
1286.4160;-32.0800;-18.4200;-13.6600
1286.6150;-31.8900;-18.3600;-13.5300
1286.8140;-30.7900;-18.3100;-12.4800
1287.0130;-29.3300;-18.2600;-11.0700
1287.2120;-27.8200;-18.2000;-9.6200
1287.4120;-26.4300;-18.1700;-8.2600
1287.6110;-25.0200;-18.1100;-6.9100
1287.8100;-24.1500;-18.0700;-6.0800
1288.0090;-23.2400;-18.0200;-5.2200
1288.2080;-22.4300;-17.9700;-4.4600
1288.4070;-21.7500;-17.9400;-3.8100
1288.6060;-21.1500;-17.8900;-3.2600
1288.8050;-20.6500;-17.8600;-2.7900
1289.0040;-20.2100;-17.8100;-2.4000
1289.2040;-19.8500;-17.7700;-2.0800
1289.4030;-19.5700;-17.7400;-1.8300
1289.6020;-19.3300;-17.7000;-1.6300
1289.8010;-19.1700;-17.6700;-1.5000
1290.0000;-19.0500;-17.6200;-1.4300
1290.1990;-18.9800;-17.5800;-1.4000
1290.3980;-18.9800;-17.5500;-1.4300
1290.5970;-19.0200;-17.5200;-1.5000
1290.7970;-19.1200;-17.4900;-1.6300
1290.9960;-19.2400;-17.4300;-1.8100
1291.1950;-19.4300;-17.3900;-2.0400
1291.3940;-19.6800;-17.3500;-2.3300
1291.5930;-19.9700;-17.3000;-2.6700
1291.7920;-20.3300;-17.2700;-3.0600
1291.9910;-20.7400;-17.2100;-3.5300
1292.1900;-21.2200;-17.1800;-4.0400
1292.3890;-21.7700;-17.1300;-4.6400
1292.5890;-22.3700;-17.0800;-5.2900
1292.7880;-23.0800;-17.0500;-6.0300
1292.9870;-23.8600;-17.0000;-6.8600
1293.1860;-24.7400;-16.9700;-7.7700
1293.3850;-25.7200;-16.9200;-8.8000
1293.5840;-26.7600;-16.8700;-9.8900
1293.7830;-27.8900;-16.8400;-11.0500
1293.9820;-29.2200;-16.8000;-12.4200
1294.1810;-29.9800;-16.7900;-13.1900
1294.3810;-30.5600;-16.7400;-13.8200
1294.5800;-30.6400;-16.7000;-13.9400
1294.7790;-30.1800;-16.6700;-13.5100
1294.9780;-29.3700;-16.6400;-12.7300
1295.1770;-28.4200;-16.6200;-11.8000
1295.3760;-27.4400;-16.5900;-10.8500
1295.5750;-26.5300;-16.5600;-9.9700
1295.7740;-25.5800;-16.5200;-9.0600
1295.9740;-25.0000;-16.4900;-8.5100
1296.1730;-24.4000;-16.4700;-7.9300
1296.3720;-23.8900;-16.4400;-7.4500
1296.5710;-23.4800;-16.4100;-7.0700
1296.7700;-23.1600;-16.3800;-6.7800
1296.9690;-22.9500;-16.3600;-6.5900
1297.1680;-22.8100;-16.3400;-6.4700
1297.3670;-22.7600;-16.3100;-6.4500
1297.5660;-22.7900;-16.2900;-6.5000
1297.7660;-22.9200;-16.2600;-6.6600
1297.9650;-23.1500;-16.2400;-6.9100
1298.1640;-23.4600;-16.2100;-7.2500
1298.3630;-23.9000;-16.1900;-7.7100
1298.5620;-24.4400;-16.1800;-8.2600
1298.7610;-25.1100;-16.1500;-8.9600
1298.9600;-25.9400;-16.1400;-9.8000
1299.1590;-26.9000;-16.1200;-10.7800
1299.3580;-28.0200;-16.1100;-11.9100
1299.5580;-29.4700;-16.0900;-13.3800
1299.7570;-30.4000;-16.0800;-14.3200
1299.9560;-31.1600;-16.0800;-15.0800
1300.1550;-31.1800;-16.0700;-15.1100
1300.3540;-30.3600;-16.0700;-14.2900
1300.5530;-29.0000;-16.0400;-12.9600
1300.7520;-27.5200;-16.0400;-11.4800
1300.9510;-26.0700;-16.0400;-10.0300
1301.1500;-24.5900;-16.0400;-8.5500
1301.3500;-23.6300;-16.0500;-7.5800
1301.5490;-22.6300;-16.0400;-6.5900
1301.7480;-21.7500;-16.0400;-5.7100
1301.9470;-20.9600;-16.0400;-4.9200
1302.1460;-20.3000;-16.0400;-4.2600
1302.3450;-19.7000;-16.0500;-3.6500
1302.5440;-19.2000;-16.0500;-3.1500
1302.7430;-18.7700;-16.0600;-2.7100
1302.9430;-18.4000;-16.0500;-2.3500
1303.1420;-18.1100;-16.0600;-2.0500
1303.3410;-17.8600;-16.0800;-1.7800
1303.5400;-17.6800;-16.0800;-1.6000
1303.7390;-17.5300;-16.0900;-1.4400
1303.9380;-17.4300;-16.0900;-1.3400
1304.1370;-17.3900;-16.1000;-1.2900
1304.3360;-17.3600;-16.1200;-1.2400
1304.5350;-17.3900;-16.1300;-1.2600
1304.7350;-17.4300;-16.1500;-1.2800
1304.9340;-17.4900;-16.1500;-1.3400
1305.1330;-17.5900;-16.1700;-1.4200
1305.3320;-17.6600;-16.1900;-1.4700
1305.5310;-17.7800;-16.2100;-1.5700
1305.7300;-17.8600;-16.2300;-1.6300
1305.9290;-17.9500;-16.2400;-1.7100
1306.1280;-18.0400;-16.2600;-1.7800
1306.3270;-18.0800;-16.2800;-1.8000
1306.5270;-18.1400;-16.3000;-1.8400
1306.7260;-18.1400;-16.3400;-1.8000
1306.9250;-18.1400;-16.3500;-1.7900
1307.1240;-18.1400;-16.3800;-1.7600
1307.3230;-18.1100;-16.3900;-1.7200
1307.5220;-18.1000;-16.4200;-1.6800
1307.7210;-18.0700;-16.4600;-1.6100
1307.9200;-18.0600;-16.4700;-1.5900
1308.1200;-18.0700;-16.5100;-1.5600
1308.3190;-18.0900;-16.5200;-1.5700
1308.5180;-18.1700;-16.5500;-1.6200
1308.7170;-18.2400;-16.5700;-1.6700
1308.9160;-18.3700;-16.5900;-1.7800
1309.1150;-18.5500;-16.6200;-1.9300
1309.3140;-18.7600;-16.6300;-2.1300
1309.5130;-19.0600;-16.6700;-2.3900
1309.7120;-19.3700;-16.7000;-2.6700
1309.9120;-19.7700;-16.7100;-3.0600
