Wavelength;Intensity_Meas;Intensity_Ref;Difference_dB
1200.0000;-61.4800;-57.0400;-4.4400
1200.1990;-61.4600;-57.0100;-4.4500
1200.3980;-61.4500;-56.9700;-4.4800
1200.5970;-61.4000;-56.9600;-4.4400
1200.7970;-61.3700;-56.9200;-4.4500
1200.9960;-61.3400;-56.9000;-4.4400
1201.1950;-61.2700;-56.8600;-4.4100
1201.3940;-61.2400;-56.8000;-4.4400
1201.5930;-61.1600;-56.7800;-4.3800
1201.7920;-61.0900;-56.7400;-4.3500
1201.9910;-61.0500;-56.6800;-4.3700
1202.1900;-60.9800;-56.6500;-4.3300
1202.3890;-60.9200;-56.5600;-4.3600
1202.5890;-60.8600;-56.5200;-4.3400
1202.7880;-60.7800;-56.4800;-4.3000
1202.9870;-60.7500;-56.4300;-4.3200
1203.1860;-60.6700;-56.3600;-4.3100
1203.3850;-60.6100;-56.3000;-4.3100
1203.5840;-60.5600;-56.3000;-4.2600
1203.7830;-60.5100;-56.2500;-4.2600
1203.9820;-60.4800;-56.2000;-4.2800
1204.1810;-60.4100;-56.1500;-4.2600
1204.3810;-60.3300;-56.1100;-4.2200
1204.5800;-60.3100;-56.1100;-4.2000
1204.7790;-60.2700;-56.0600;-4.2100
1204.9780;-60.2400;-56.0100;-4.2300
1205.1770;-60.1700;-56.0000;-4.1700
1205.3760;-60.1100;-55.9800;-4.1300
1205.5750;-60.0800;-55.9600;-4.1200
1205.7740;-60.0500;-55.9300;-4.1200
1205.9740;-60.0300;-55.9100;-4.1200
1206.1730;-59.9400;-55.9200;-4.0200
1206.3720;-59.9500;-55.8800;-4.0700
1206.5710;-59.9600;-55.8700;-4.0900
1206.7700;-59.8900;-55.8300;-4.0600
1206.9690;-59.8800;-55.8100;-4.0700
1207.1680;-59.8800;-55.8300;-4.0500
1207.3670;-59.8700;-55.7800;-4.0900
1207.5660;-59.8700;-55.7300;-4.1400
1207.7660;-59.8400;-55.7100;-4.1300
1207.9650;-59.8400;-55.6900;-4.1500
1208.1640;-59.8300;-55.6500;-4.1800
1208.3630;-59.8100;-55.5800;-4.2300
1208.5620;-59.7700;-55.5500;-4.2200
1208.7610;-59.7200;-55.5300;-4.1900
1208.9600;-59.7000;-55.4700;-4.2300
1209.1590;-59.6700;-55.4200;-4.2500
1209.3580;-59.6000;-55.3500;-4.2500
1209.5580;-59.5600;-55.3200;-4.2400
1209.7570;-59.5200;-55.2900;-4.2300
1209.9560;-59.4800;-55.2200;-4.2600
1210.1550;-59.4100;-55.1700;-4.2400
1210.3540;-59.3100;-55.1200;-4.1900
1210.5530;-59.2500;-55.0900;-4.1600
1210.7520;-59.2000;-55.0300;-4.1700
1210.9510;-59.1300;-54.9700;-4.1600
1211.1500;-59.0400;-54.9500;-4.0900
1211.3500;-58.9600;-54.9100;-4.0500
1211.5490;-58.9600;-54.8600;-4.1000
1211.7480;-58.8800;-54.8200;-4.0600
1211.9470;-58.8100;-54.7900;-4.0200
1212.1460;-58.7500;-54.7700;-3.9800
1212.3450;-58.7200;-54.7300;-3.9900
1212.5440;-58.7000;-54.6800;-4.0200
1212.7430;-58.6400;-54.6700;-3.9700
1212.9430;-58.5900;-54.6400;-3.9500
1213.1420;-58.5800;-54.6200;-3.9600
1213.3410;-58.5900;-54.5800;-4.0100
1213.5400;-58.5500;-54.5600;-3.9900
1213.7390;-58.4900;-54.5500;-3.9400
1213.9380;-58.5100;-54.5200;-3.9900
1214.1370;-58.5000;-54.4700;-4.0300
1214.3360;-58.4600;-54.4200;-4.0400
1214.5350;-58.4200;-54.4100;-4.0100
1214.7350;-58.4100;-54.3900;-4.0200
1214.9340;-58.4000;-54.3300;-4.0700
1215.1330;-58.3500;-54.2800;-4.0700
1215.3320;-58.2800;-54.2400;-4.0400
1215.5310;-58.2500;-54.2100;-4.0400
1215.7300;-58.2200;-54.1500;-4.0700
1215.9290;-58.1800;-54.0900;-4.0900
1216.1280;-58.0900;-54.0500;-4.0400
1216.3270;-58.0200;-53.9900;-4.0300
1216.5270;-58.0000;-53.9400;-4.0600
1216.7260;-57.9300;-53.8800;-4.0500
1216.9250;-57.8400;-53.8200;-4.0200
1217.1240;-57.7500;-53.7900;-3.9600
1217.3230;-57.7000;-53.7100;-3.9900
1217.5220;-57.6500;-53.6500;-4.0000
1217.7210;-57.5500;-53.6100;-3.9400
1217.9200;-57.4600;-53.5600;-3.9000
1218.1200;-57.4100;-53.5200;-3.8900
1218.3190;-57.3600;-53.4500;-3.9100
1218.5180;-57.2800;-53.4300;-3.8500
1218.7170;-57.1800;-53.4000;-3.7800
1218.9160;-57.1600;-53.3500;-3.8100
1219.1150;-57.1100;-53.3100;-3.8000
1219.3140;-57.0300;-53.2700;-3.7600
1219.5130;-56.9800;-53.2500;-3.7300
1219.7120;-56.9500;-53.2200;-3.7300
1219.9120;-56.9500;-53.1700;-3.7800
1220.1110;-56.9000;-53.1600;-3.7400
1220.3100;-56.8600;-53.1200;-3.7400
1220.5090;-56.8900;-53.0900;-3.8000
1220.7080;-56.8900;-53.0400;-3.8500
1220.9070;-56.9000;-53.0000;-3.9000
1221.1060;-56.8800;-52.9700;-3.9100
1221.3050;-56.9000;-52.9200;-3.9800
1221.5040;-56.9300;-52.8600;-4.0700
1221.7040;-56.9500;-52.8100;-4.1400
1221.9030;-56.9700;-52.7700;-4.2000
1222.1020;-56.9800;-52.7100;-4.2700
1222.3010;-57.0200;-52.6400;-4.3800
1222.5000;-57.0400;-52.5700;-4.4700
1222.6990;-57.0400;-52.5100;-4.5300
1222.8980;-57.0700;-52.4500;-4.6200
1223.0970;-57.0900;-52.3900;-4.7000
1223.2970;-57.0800;-52.3000;-4.7800
1223.4960;-57.0700;-52.2300;-4.8400
1223.6950;-57.0600;-52.1700;-4.8900
1223.8940;-57.0800;-52.1000;-4.9800
1224.0930;-57.0400;-52.0400;-5.0000
1224.2920;-57.0000;-51.9700;-5.0300
1224.4910;-56.9900;-51.8900;-5.1000
1224.6900;-56.9700;-51.8400;-5.1300
1224.8890;-56.9600;-51.7600;-5.2000
1225.0890;-56.9100;-51.7200;-5.1900
1225.2880;-56.8600;-51.6500;-5.2100
1225.4870;-56.8600;-51.5800;-5.2800
1225.6860;-56.8100;-51.5300;-5.2800
1225.8850;-56.7700;-51.4900;-5.2800
1226.0840;-56.7300;-51.4400;-5.2900
1226.2830;-56.7000;-51.3800;-5.3200
1226.4820;-56.6600;-51.3200;-5.3400
1226.6810;-56.5900;-51.2900;-5.3000
1226.8810;-56.5500;-51.2400;-5.3100
1227.0800;-56.4900;-51.1900;-5.3000
1227.2790;-56.4200;-51.1300;-5.2900
1227.4780;-56.3200;-51.0800;-5.2400
1227.6770;-56.2300;-51.0300;-5.2000
1227.8760;-56.1500;-50.9700;-5.1800
1228.0750;-56.0200;-50.9200;-5.1000
1228.2740;-55.8800;-50.8600;-5.0200
1228.4740;-55.6900;-50.7900;-4.9000
1228.6730;-55.5800;-50.7300;-4.8500
1228.8720;-55.4300;-50.6700;-4.7600
1229.0710;-55.2400;-50.6100;-4.6300
1229.2700;-55.0700;-50.5200;-4.5500
1229.4690;-54.8900;-50.4400;-4.4500
1229.6680;-54.7100;-50.3800;-4.3300
1229.8670;-54.5200;-50.3000;-4.2200
1230.0660;-54.3400;-50.2300;-4.1100
1230.2660;-54.2000;-50.1400;-4.0600
1230.4650;-54.0400;-50.0500;-3.9900
1230.6640;-53.8900;-49.9900;-3.9000
1230.8630;-53.8000;-49.9200;-3.8800
1231.0620;-53.7100;-49.8500;-3.8600
1231.2610;-53.6500;-49.7800;-3.8700
1231.4600;-53.6000;-49.7200;-3.8800
1231.6590;-53.5700;-49.6600;-3.9100
1231.8580;-53.5800;-49.5900;-3.9900
1232.0580;-53.6000;-49.5400;-4.0600
1232.2570;-53.6200;-49.4700;-4.1500
1232.4560;-53.6700;-49.4200;-4.2500
1232.6550;-53.7500;-49.3600;-4.3900
1232.8540;-53.8200;-49.2900;-4.5300
1233.0530;-53.8900;-49.2600;-4.6300
1233.2520;-53.9800;-49.1900;-4.7900
1233.4510;-54.0500;-49.1300;-4.9200
1233.6500;-54.1200;-49.0800;-5.0400
1233.8500;-54.1900;-49.0100;-5.1800
1234.0490;-54.2400;-48.9700;-5.2700
1234.2480;-54.2800;-48.8900;-5.3900
1234.4470;-54.2600;-48.8300;-5.4300
1234.6460;-54.2400;-48.7700;-5.4700
1234.8450;-54.2200;-48.7000;-5.5200
1235.0440;-54.1400;-48.6300;-5.5100
1235.2430;-54.0300;-48.5500;-5.4800
1235.4430;-53.8900;-48.4800;-5.4100
1235.6420;-53.7700;-48.3900;-5.3800
1235.8410;-53.5900;-48.3000;-5.2900
1236.0400;-53.4000;-48.2300;-5.1700
1236.2390;-53.2300;-48.1300;-5.1000
1236.4380;-53.0400;-48.0600;-4.9800
1236.6370;-52.8500;-47.9700;-4.8800
1236.8360;-52.6600;-47.8700;-4.7900
1237.0350;-52.4900;-47.7900;-4.7000
1237.2350;-52.3500;-47.7000;-4.6500
1237.4340;-52.1700;-47.6200;-4.5500
1237.6330;-52.0400;-47.5300;-4.5100
1237.8320;-51.9400;-47.4600;-4.4800
1238.0310;-51.8300;-47.3700;-4.4600
1238.2300;-51.7600;-47.2900;-4.4700
1238.4290;-51.6700;-47.2200;-4.4500
1238.6280;-51.6300;-47.1400;-4.4900
1238.8270;-51.5800;-47.0600;-4.5200
1239.0270;-51.5300;-46.9800;-4.5500
1239.2260;-51.5100;-46.9000;-4.6100
1239.4250;-51.4700;-46.8300;-4.6400
1239.6240;-51.4400;-46.7400;-4.7000
1239.8230;-51.3800;-46.6600;-4.7200
1240.0220;-51.3300;-46.5700;-4.7600
1240.2210;-51.2800;-46.4800;-4.8000
1240.4200;-51.1800;-46.4000;-4.7800
1240.6200;-51.0800;-46.3000;-4.7800
1240.8190;-50.9700;-46.2000;-4.7700
1241.0180;-50.8300;-46.0800;-4.7500
1241.2170;-50.7000;-45.9700;-4.7300
1241.4160;-50.5300;-45.8400;-4.6900
1241.6150;-50.3700;-45.7400;-4.6300
1241.8140;-50.2100;-45.6300;-4.5800
1242.0130;-50.0300;-45.5000;-4.5300
1242.2120;-49.8700;-45.3900;-4.4800
1242.4120;-49.7100;-45.2600;-4.4500
1242.6110;-49.5400;-45.1300;-4.4100
1242.8100;-49.3800;-45.0100;-4.3700
1243.0090;-49.2300;-44.8600;-4.3700
1243.2080;-49.1100;-44.7500;-4.3600
1243.4070;-48.9700;-44.6100;-4.3600
1243.6060;-48.8500;-44.4700;-4.3800
1243.8050;-48.7500;-44.3600;-4.3900
1244.0040;-48.6500;-44.2200;-4.4300
1244.2040;-48.5700;-44.1000;-4.4700
1244.4030;-48.5000;-43.9700;-4.5300
1244.6020;-48.4600;-43.8300;-4.6300
1244.8010;-48.4100;-43.7200;-4.6900
1245.0000;-48.3700;-43.5900;-4.7800
1245.1990;-48.3600;-43.4700;-4.8900
1245.3980;-48.3400;-43.3300;-5.0100
1245.5970;-48.3100;-43.2000;-5.1100
1245.7970;-48.2800;-43.0700;-5.2100
1245.9960;-48.2400;-42.9300;-5.3100
1246.1950;-48.2100;-42.8000;-5.4100
1246.3940;-48.1400;-42.6500;-5.4900
1246.5930;-48.0600;-42.5000;-5.5600
1246.7920;-47.9600;-42.3700;-5.5900
1246.9910;-47.8200;-42.2000;-5.6200
1247.1900;-47.6700;-42.0600;-5.6100
1247.3890;-47.4900;-41.9100;-5.5800
1247.5890;-47.2900;-41.7400;-5.5500
1247.7880;-47.0500;-41.6000;-5.4500
1247.9870;-46.8000;-41.4300;-5.3700
1248.1860;-46.5600;-41.2800;-5.2800
1248.3850;-46.2800;-41.1100;-5.1700
1248.5840;-46.0100;-40.9400;-5.0700
1248.7830;-45.7000;-40.8000;-4.9000
1248.9820;-45.4900;-40.6400;-4.8500
1249.1810;-45.2300;-40.4900;-4.7400
1249.3810;-44.9800;-40.3300;-4.6500
1249.5800;-44.7500;-40.1700;-4.5800
1249.7790;-44.5200;-40.0300;-4.4900
1249.9780;-44.3000;-39.8600;-4.4400
1250.1770;-44.0800;-39.7200;-4.3600
1250.3760;-43.8900;-39.5700;-4.3200
1250.5750;-43.7000;-39.4100;-4.2900
1250.7740;-43.5100;-39.2700;-4.2400
1250.9740;-43.3500;-39.1200;-4.2300
1251.1730;-43.1600;-38.9800;-4.1800
1251.3720;-42.9800;-38.8100;-4.1700
1251.5710;-42.8100;-38.6600;-4.1500
1251.7700;-42.6100;-38.5100;-4.1000
1251.9690;-42.4200;-38.3400;-4.0800
1252.1680;-42.2100;-38.2000;-4.0100
1252.3670;-42.0000;-38.0200;-3.9800
1252.5660;-41.8100;-37.8700;-3.9400
1252.7660;-41.5800;-37.7000;-3.8800
1252.9650;-41.3800;-37.5400;-3.8400
1253.1640;-41.1600;-37.3800;-3.7800
1253.3630;-40.9400;-37.1900;-3.7500
1253.5620;-40.7500;-37.0300;-3.7200
1253.7610;-40.5500;-36.8600;-3.6900
1253.9600;-40.4000;-36.7000;-3.7000
1254.1590;-40.2300;-36.5500;-3.6800
1254.3580;-40.1000;-36.3700;-3.7300
1254.5580;-40.0000;-36.2200;-3.7800
1254.7570;-39.9100;-36.0500;-3.8600
1254.9560;-39.8700;-35.8700;-4.0000
1255.1550;-39.8500;-35.7500;-4.1000
1255.3540;-39.8600;-35.5900;-4.2700
1255.5530;-39.9100;-35.4700;-4.4400
1255.7520;-39.9800;-35.3100;-4.6700
1255.9510;-40.0900;-35.1600;-4.9300
1256.1500;-40.2100;-35.0200;-5.1900
1256.3500;-40.3500;-34.8700;-5.4800
1256.5490;-40.4900;-34.7500;-5.7400
1256.7480;-40.6200;-34.6000;-6.0200
1256.9470;-40.7300;-34.4600;-6.2700
1257.1460;-40.7800;-34.3100;-6.4700
1257.3450;-40.7900;-34.1600;-6.6300
1257.5440;-40.7300;-34.0300;-6.7000
1257.7430;-40.5800;-33.8700;-6.7100
1257.9430;-40.3500;-33.7300;-6.6200
1258.1420;-40.0500;-33.5700;-6.4800
1258.3410;-39.6900;-33.4200;-6.2700
1258.5400;-39.2900;-33.2800;-6.0100
1258.7390;-38.8500;-33.1100;-5.7400
1258.9380;-38.4200;-32.9600;-5.4600
1259.1370;-37.9800;-32.8000;-5.1800
1259.3360;-37.5600;-32.6400;-4.9200
1259.5350;-37.1500;-32.4900;-4.6600
1259.7350;-36.7700;-32.3200;-4.4500
1259.9340;-36.4200;-32.1700;-4.2500
1260.1330;-36.1000;-32.0200;-4.0800
1260.3320;-35.7600;-31.8600;-3.9000
1260.5310;-35.5500;-31.7200;-3.8300
1260.7300;-35.3400;-31.5600;-3.7800
1260.9290;-35.1300;-31.4100;-3.7200
1261.1280;-34.9500;-31.2500;-3.7000
1261.3270;-34.7900;-31.1100;-3.6800
1261.5270;-34.6500;-30.9800;-3.6700
1261.7260;-34.5200;-30.8300;-3.6900
1261.9250;-34.3800;-30.6900;-3.6900
1262.1240;-34.2500;-30.5400;-3.7100
1262.3230;-34.1100;-30.4000;-3.7100
1262.5220;-33.9600;-30.2700;-3.6900
1262.7210;-33.7900;-30.1300;-3.6600
1262.9200;-33.5800;-30.0000;-3.5800
1263.1200;-33.3600;-29.8500;-3.5100
1263.3190;-33.1200;-29.7100;-3.4100
1263.5180;-32.8600;-29.5800;-3.2800
1263.7170;-32.5800;-29.4400;-3.1400
1263.9160;-32.2800;-29.3000;-2.9800
1264.1150;-31.9700;-29.1500;-2.8200
1264.3140;-31.6700;-29.0100;-2.6600
1264.5130;-31.3700;-28.8800;-2.4900
1264.7120;-31.0800;-28.7300;-2.3500
1264.9120;-30.7900;-28.6100;-2.1800
1265.1110;-30.5300;-28.4600;-2.0700
1265.3100;-30.2900;-28.3200;-1.9700
1265.5090;-30.0700;-28.1900;-1.8800
1265.7080;-29.8900;-28.0500;-1.8400
1265.9070;-29.7100;-27.9300;-1.7800
1266.1060;-29.5700;-27.7800;-1.7900
1266.3050;-29.4600;-27.6600;-1.8000
1266.5040;-29.3800;-27.5400;-1.8400
1266.7040;-29.3400;-27.4100;-1.9300
1266.9030;-29.2900;-27.2900;-2.0000
1267.1020;-29.2800;-27.1600;-2.1200
1267.3010;-29.2800;-27.0400;-2.2400
1267.5000;-29.3000;-26.9300;-2.3700
1267.6990;-29.3400;-26.8000;-2.5400
1267.8980;-29.3700;-26.6900;-2.6800
1268.0970;-29.4100;-26.5700;-2.8400
1268.2970;-29.4500;-26.4600;-2.9900
1268.4960;-29.4800;-26.3500;-3.1300
1268.6950;-29.5100;-26.2300;-3.2800
1268.8940;-29.5000;-26.1200;-3.3800
1269.0930;-29.4900;-25.9700;-3.5200
1269.2920;-29.4700;-25.8800;-3.5900
1269.4910;-29.4500;-25.7600;-3.6900
1269.6900;-29.4200;-25.6600;-3.7600
1269.8890;-29.3800;-25.5300;-3.8500
1270.0890;-29.3600;-25.4100;-3.9500
1270.2880;-29.3300;-25.3100;-4.0200
1270.4870;-29.3400;-25.1900;-4.1500
1270.6860;-29.3700;-25.0800;-4.2900
1270.8850;-29.4100;-24.9600;-4.4500
1271.0840;-29.5000;-24.8500;-4.6500
1271.2830;-29.6100;-24.7400;-4.8700
1271.4820;-29.7700;-24.6200;-5.1500
1271.6810;-29.9800;-24.5200;-5.4600
1271.8810;-30.2200;-24.4100;-5.8100
1272.0800;-30.5100;-24.3000;-6.2100
1272.2790;-30.8200;-24.2000;-6.6200
1272.4780;-31.1600;-24.0800;-7.0800
1272.6770;-31.5100;-23.9900;-7.5200
1272.8760;-31.8100;-23.8700;-7.9400
1273.0750;-32.0800;-23.7700;-8.3100
1273.2740;-32.2100;-23.6700;-8.5400
1273.4740;-32.2000;-23.5600;-8.6400
1273.6730;-32.0200;-23.4600;-8.5600
1273.8720;-31.6600;-23.3500;-8.3100
1274.0710;-31.1700;-23.2400;-7.9300
1274.2700;-30.5500;-23.1400;-7.4100
1274.4690;-29.8900;-23.0300;-6.8600
1274.6680;-29.1900;-22.9400;-6.2500
1274.8670;-28.5000;-22.8300;-5.6700
1275.0660;-27.8400;-22.7300;-5.1100
1275.2660;-27.2000;-22.6300;-4.5700
1275.4650;-26.6100;-22.5300;-4.0800
1275.6640;-25.9700;-22.4400;-3.5300
1275.8630;-25.5700;-22.3400;-3.2300
1276.0620;-25.1000;-22.2500;-2.8500
1276.2610;-24.6900;-22.1600;-2.5300
1276.4600;-24.3300;-22.0700;-2.2600
1276.6590;-23.9800;-21.9900;-1.9900
1276.8580;-23.7000;-21.8900;-1.8100
1277.0580;-23.4400;-21.8200;-1.6200
1277.2570;-23.2200;-21.7300;-1.4900
1277.4560;-23.0300;-21.6500;-1.3800
1277.6550;-22.8600;-21.5900;-1.2700
1277.8540;-22.7400;-21.5000;-1.2400
1278.0530;-22.6100;-21.4300;-1.1800
1278.2520;-22.5100;-21.3400;-1.1700
1278.4510;-22.4300;-21.2700;-1.1600
1278.6500;-22.3500;-21.2000;-1.1500
1278.8500;-22.3000;-21.1100;-1.1900
1279.0490;-22.2300;-21.0400;-1.1900
1279.2480;-22.1800;-20.9500;-1.2300
1279.4470;-22.1400;-20.8800;-1.2600
1279.6460;-22.0900;-20.8000;-1.2900
1279.8450;-22.0500;-20.7100;-1.3400
1280.0440;-22.0000;-20.6500;-1.3500
1280.2430;-21.9700;-20.5500;-1.4200
1280.4430;-21.9200;-20.4700;-1.4500
1280.6420;-21.8900;-20.3900;-1.5000
1280.8410;-21.8800;-20.3000;-1.5800
1281.0400;-21.8600;-20.2400;-1.6200
1281.2390;-21.8800;-20.1500;-1.7300
1281.4380;-21.9000;-20.0700;-1.8300
1281.6370;-21.9500;-19.9900;-1.9600
1281.8360;-22.0300;-19.9100;-2.1200
1282.0350;-22.1300;-19.8400;-2.2900
1282.2350;-22.2800;-19.7500;-2.5300
1282.4340;-22.4500;-19.6900;-2.7600
1282.6330;-22.6700;-19.6200;-3.0500
1282.8320;-22.9400;-19.5400;-3.4000
1283.0310;-23.2300;-19.4900;-3.7400
1283.2300;-23.5800;-19.4100;-4.1700
1283.4290;-23.9500;-19.3500;-4.6000
1283.6280;-24.3800;-19.2700;-5.1100
1283.8270;-24.8500;-19.2000;-5.6500
1284.0270;-25.3200;-19.1500;-6.1700
1284.2260;-25.8300;-19.0800;-6.7500
1284.4250;-26.2900;-19.0300;-7.2600
1284.6240;-26.7100;-18.9500;-7.7600
1284.8230;-27.0300;-18.8900;-8.1400
1285.0220;-27.2100;-18.8400;-8.3700
1285.2210;-27.2200;-18.7700;-8.4500
1285.4200;-27.0500;-18.7200;-8.3300
1285.6200;-26.7300;-18.6400;-8.0900
1285.8190;-26.2700;-18.5900;-7.6800
1286.0180;-25.7300;-18.5300;-7.2000
1286.2170;-25.1600;-18.4700;-6.6900
1286.4160;-24.5600;-18.4200;-6.1400
1286.6150;-23.9900;-18.3600;-5.6300
1286.8140;-23.4100;-18.3100;-5.1000
1287.0130;-22.8800;-18.2600;-4.6200
1287.2120;-22.3900;-18.2000;-4.1900
1287.4120;-21.9100;-18.1700;-3.7400
1287.6110;-21.5000;-18.1100;-3.3900
1287.8100;-21.1000;-18.0700;-3.0300
1288.0090;-20.7400;-18.0200;-2.7200
1288.2080;-20.4200;-17.9700;-2.4500
1288.4070;-20.1200;-17.9400;-2.1800
1288.6060;-19.8500;-17.8900;-1.9600
1288.8050;-19.6000;-17.8600;-1.7400
1289.0040;-19.3700;-17.8100;-1.5600
1289.2040;-19.1800;-17.7700;-1.4100
1289.4030;-18.9900;-17.7400;-1.2500
1289.6020;-18.8400;-17.7000;-1.1400
1289.8010;-18.6800;-17.6700;-1.0100
1290.0000;-18.5600;-17.6200;-0.9400
1290.1990;-18.4500;-17.5800;-0.8700
1290.3980;-18.3600;-17.5500;-0.8100
1290.5970;-18.3200;-17.5200;-0.8000
1290.7970;-18.2600;-17.4900;-0.7700
1290.9960;-18.2300;-17.4300;-0.8000
1291.1950;-18.2400;-17.3900;-0.8500
1291.3940;-18.2600;-17.3500;-0.9100
1291.5930;-18.3200;-17.3000;-1.0200
1291.7920;-18.4000;-17.2700;-1.1300
1291.9910;-18.5300;-17.2100;-1.3200
1292.1900;-18.6800;-17.1800;-1.5000
1292.3890;-18.8700;-17.1300;-1.7400
1292.5890;-19.1100;-17.0800;-2.0300
1292.7880;-19.3700;-17.0500;-2.3200
1292.9870;-19.6900;-17.0000;-2.6900
1293.1860;-20.0400;-16.9700;-3.0700
1293.3850;-20.4500;-16.9200;-3.5300
1293.5840;-20.9000;-16.8700;-4.0300
1293.7830;-21.3900;-16.8400;-4.5500
1293.9820;-21.9600;-16.8000;-5.1600
1294.1810;-22.5500;-16.7900;-5.7600
1294.3810;-23.2000;-16.7400;-6.4600
1294.5800;-23.8900;-16.7000;-7.1900
1294.7790;-24.6200;-16.6700;-7.9500
1294.9780;-25.4000;-16.6400;-8.7600
1295.1770;-26.1800;-16.6200;-9.5600
1295.3760;-26.9900;-16.5900;-10.4000
1295.5750;-27.7500;-16.5600;-11.1900
1295.7740;-28.6600;-16.5200;-12.1400
1295.9740;-29.1900;-16.4900;-12.7000
1296.1730;-29.8100;-16.4700;-13.3400
1296.3720;-30.3600;-16.4400;-13.9200
1296.5710;-30.8200;-16.4100;-14.4100
1296.7700;-31.2700;-16.3800;-14.8900
1296.9690;-31.6800;-16.3600;-15.3200
1297.1680;-32.1300;-16.3400;-15.7900
1297.3670;-32.6000;-16.3100;-16.2900
1297.5660;-33.1000;-16.2900;-16.8100
1297.7660;-33.6100;-16.2600;-17.3500
1297.9650;-33.9800;-16.2400;-17.7400
1298.1640;-34.1100;-16.2100;-17.9000
1298.3630;-33.7900;-16.1900;-17.6000
1298.5620;-32.9600;-16.1800;-16.7800
1298.7610;-31.8000;-16.1500;-15.6500
1298.9600;-30.4100;-16.1400;-14.2700
1299.1590;-29.0200;-16.1200;-12.9000
1299.3580;-27.6500;-16.1100;-11.5400
1299.5580;-26.3600;-16.0900;-10.2700
1299.7570;-25.0100;-16.0800;-8.9300
1299.9560;-24.1400;-16.0800;-8.0600
1300.1550;-23.1800;-16.0700;-7.1100
1300.3540;-22.3100;-16.0700;-6.2400
1300.5530;-21.5300;-16.0400;-5.4900
1300.7520;-20.8100;-16.0400;-4.7700
1300.9510;-20.1900;-16.0400;-4.1500
1301.1500;-19.6400;-16.0400;-3.6000
1301.3500;-19.1500;-16.0500;-3.1000
1301.5490;-18.7500;-16.0400;-2.7100
1301.7480;-18.3800;-16.0400;-2.3400
1301.9470;-18.0800;-16.0400;-2.0400
1302.1460;-17.8400;-16.0400;-1.8000
1302.3450;-17.6500;-16.0500;-1.6000
1302.5440;-17.5300;-16.0500;-1.4800
1302.7430;-17.4400;-16.0600;-1.3800
1302.9430;-17.4200;-16.0500;-1.3700
1303.1420;-17.4400;-16.0600;-1.3800
1303.3410;-17.5000;-16.0800;-1.4200
1303.5400;-17.6400;-16.0800;-1.5600
1303.7390;-17.7900;-16.0900;-1.7000
1303.9380;-18.0100;-16.0900;-1.9200
1304.1370;-18.2500;-16.1000;-2.1500
1304.3360;-18.5300;-16.1200;-2.4100
1304.5350;-18.8700;-16.1300;-2.7400
1304.7350;-19.1900;-16.1500;-3.0400
1304.9340;-19.5500;-16.1500;-3.4000
1305.1330;-19.8900;-16.1700;-3.7200
1305.3320;-20.2200;-16.1900;-4.0300
1305.5310;-20.5300;-16.2100;-4.3200
1305.7300;-20.7800;-16.2300;-4.5500
1305.9290;-20.9900;-16.2400;-4.7500
1306.1280;-21.1200;-16.2600;-4.8600
1306.3270;-21.1900;-16.2800;-4.9100
1306.5270;-21.2000;-16.3000;-4.9000
1306.7260;-21.1600;-16.3400;-4.8200
1306.9250;-21.0900;-16.3500;-4.7400
1307.1240;-21.0000;-16.3800;-4.6200
1307.3230;-20.9200;-16.3900;-4.5300
1307.5220;-20.8500;-16.4200;-4.4300
1307.7210;-20.8000;-16.4600;-4.3400
1307.9200;-20.8100;-16.4700;-4.3400
1308.1200;-20.8600;-16.5100;-4.3500
1308.3190;-20.9700;-16.5200;-4.4500
1308.5180;-21.1400;-16.5500;-4.5900
1308.7170;-21.3600;-16.5700;-4.7900
1308.9160;-21.6800;-16.5900;-5.0900
1309.1150;-22.0700;-16.6200;-5.4500
1309.3140;-22.5600;-16.6300;-5.9300
1309.5130;-23.1400;-16.6700;-6.4700
1309.7120;-23.8100;-16.7000;-7.1100
1309.9120;-24.5900;-16.7100;-7.8800
